* Measurement data measured by REW V5.31.3
* Source: EXCL: Headset (USB-C to 3.5mm Headphone Jack Adapter), MICROPHONE (Master Volume), 0, volume: 0.260
* Format: 256k Log Swept Sine, 1 sweep at -12.0 dBFS with no timing reference
* Dated: Feb 9, 2025 9:42:17 PM
* REW Settings:
*  C-weighting compensation: Off
*  Target level: 75.0 dB
* Note: ; 
* Measurement: HD650 (Worn) R8
* Smoothing: 1/6 octave
* Frequency Step: 96 ppo
* Start Frequency: 20.0 Hz
*
* Freq(Hz) SPL(dB) Phase(degrees)
20.141602 86.349 -23.8226
20.287556 86.361 -23.9481
20.434568 86.377 -24.1176
20.582645 86.392 -24.3282
20.731796 86.406 -24.5775
20.882027 86.417 -24.8634
21.033346 86.422 -25.1847
21.185763 86.422 -25.5403
21.339284 86.416 -25.9296
21.493917 86.405 -26.3512
21.649671 86.390 -26.8035
21.806553 86.371 -27.2837
21.964572 86.349 -27.7879
22.123737 86.326 -28.3114
22.284054 86.303 -28.8489
22.445534 86.281 -29.3949
22.608183 86.260 -29.9444
22.772012 86.242 -30.4932
22.937027 86.228 -31.0385
23.103238 86.218 -31.5792
23.270654 86.214 -32.1161
23.439282 86.216 -32.6515
23.609133 86.225 -33.1891
23.780215 86.243 -33.7334
23.952536 86.269 -34.2888
24.126106 86.304 -34.8595
24.300934 86.349 -35.4481
24.477028 86.404 -36.0559
24.654399 86.468 -36.6820
24.833055 86.542 -37.3238
25.013005 86.625 -37.9770
25.194260 86.715 -38.6365
25.376828 86.812 -39.2962
25.560719 86.915 -39.9507
25.745942 87.022 -40.5950
25.932508 87.132 -41.2257
26.120426 87.244 -41.8407
26.309705 87.355 -42.4395
26.500356 87.463 -43.0232
26.692388 87.568 -43.5940
26.885812 87.668 -44.1549
27.080638 87.762 -44.7094
27.276876 87.850 -45.2613
27.474535 87.931 -45.8145
27.673627 88.008 -46.3725
27.874161 88.081 -46.9386
28.076149 88.154 -47.5154
28.279600 88.230 -48.1049
28.484526 88.311 -48.7079
28.690937 88.402 -49.3240
28.898843 88.505 -49.9516
29.108256 88.624 -50.5880
29.319186 88.759 -51.2292
29.531645 88.910 -51.8711
29.745644 89.078 -52.5092
29.961193 89.259 -53.1398
30.178304 89.449 -53.7602
30.396989 89.645 -54.3689
30.617258 89.841 -54.9659
30.839123 90.031 -55.5525
31.062596 90.211 -56.1305
31.287688 90.374 -56.7021
31.514412 90.516 -57.2694
31.742778 90.635 -57.8341
31.972800 90.726 -58.3971
32.204488 90.789 -58.9592
32.437855 90.824 -59.5209
32.672913 90.831 -60.0831
32.909674 90.812 -60.6470
33.148151 90.769 -61.2143
33.388356 90.705 -61.7867
33.630302 90.624 -62.3657
33.874001 90.529 -62.9519
34.119466 90.424 -63.5442
34.366710 90.312 -64.1400
34.615745 90.196 -64.7349
34.866585 90.080 -65.3235
35.119243 89.968 -65.9002
35.373731 89.862 -66.4605
35.630064 89.766 -67.0015
35.888254 89.683 -67.5232
36.148315 89.617 -68.0284
36.410261 89.569 -68.5226
36.674104 89.541 -69.0127
36.939860 89.535 -69.5061
37.207542 89.550 -70.0092
37.477163 89.586 -70.5262
37.748738 89.643 -71.0585
38.022281 89.720 -71.6047
38.297806 89.816 -72.1608
38.575327 89.930 -72.7222
38.854860 90.063 -73.2842
39.136419 90.214 -73.8436
39.420017 90.382 -74.3994
39.705671 90.569 -74.9528
39.993395 90.772 -75.5067
40.283203 90.990 -76.0646
40.575112 91.221 -76.6295
40.869136 91.464 -77.2032
41.165290 91.717 -77.7853
41.463591 91.977 -78.3741
41.764053 92.243 -78.9664
42.066693 92.512 -79.5587
42.371525 92.783 -80.1479
42.678567 93.054 -80.7309
42.987834 93.321 -81.3054
43.299341 93.583 -81.8694
43.613106 93.837 -82.4214
43.929145 94.081 -82.9606
44.247473 94.313 -83.4874
44.568109 94.532 -84.0033
44.891068 94.737 -84.5116
45.216367 94.927 -85.0165
45.544023 95.102 -85.5223
45.874054 95.261 -86.0326
46.206476 95.403 -86.5494
46.541307 95.530 -87.0732
46.878565 95.640 -87.6026
47.218266 95.734 -88.1356
47.560429 95.812 -88.6698
47.905072 95.876 -89.2031
48.252212 95.924 -89.7343
48.601867 95.960 -90.2625
48.954056 95.983 -90.7880
49.308798 95.996 -91.3113
49.666109 96.001 -91.8335
50.026010 96.000 -92.3559
50.388520 95.996 -92.8792
50.753656 95.990 -93.4038
51.121437 95.986 -93.9292
51.491884 95.984 -94.4545
51.865016 95.986 -94.9787
52.240851 95.992 -95.5012
52.619410 96.003 -96.0221
53.000712 96.019 -96.5418
53.384777 96.038 -97.0611
53.771625 96.061 -97.5809
54.161276 96.085 -98.1016
54.553751 96.111 -98.6236
54.949070 96.136 -99.1469
55.347254 96.160 -99.6721
55.748323 96.183 -100.1998
56.152298 96.203 -100.7309
56.559201 96.220 -101.2664
56.969052 96.233 -101.8069
57.381873 96.243 -102.3527
57.797686 96.250 -102.9031
58.216512 96.253 -103.4565
58.638373 96.252 -104.0109
59.063291 96.248 -104.5637
59.491288 96.241 -105.1121
59.922386 96.232 -105.6540
60.356608 96.221 -106.1884
60.793977 96.208 -106.7155
61.234515 96.194 -107.2368
61.678246 96.180 -107.7545
62.125192 96.167 -108.2711
62.575377 96.154 -108.7883
63.028824 96.143 -109.3076
63.485557 96.133 -109.8296
63.945599 96.125 -110.3546
64.408975 96.119 -110.8826
64.875709 96.115 -111.4131
65.345825 96.113 -111.9454
65.819348 96.114 -112.4786
66.296302 96.118 -113.0113
66.776713 96.124 -113.5427
67.260604 96.132 -114.0721
67.748002 96.144 -114.5994
68.238932 96.157 -115.1250
68.733420 96.173 -115.6493
69.231490 96.191 -116.1730
69.733170 96.211 -116.6964
70.238485 96.233 -117.2192
70.747463 96.257 -117.7413
71.260128 96.282 -118.2623
71.776508 96.309 -118.7820
72.296630 96.337 -119.3006
72.820521 96.365 -119.8181
73.348209 96.395 -120.3346
73.879720 96.425 -120.8504
74.415083 96.455 -121.3654
74.954326 96.486 -121.8797
75.497475 96.517 -122.3932
76.044561 96.546 -122.9060
76.595612 96.575 -123.4181
77.150655 96.602 -123.9294
77.709720 96.626 -124.4399
78.272837 96.647 -124.9496
78.840034 96.665 -125.4582
79.411342 96.678 -125.9652
79.986789 96.688 -126.4703
80.566406 96.693 -126.9730
81.150224 96.694 -127.4728
81.738272 96.691 -127.9694
82.330581 96.685 -128.4627
82.927182 96.678 -128.9526
83.528107 96.670 -129.4391
84.133386 96.664 -129.9225
84.743051 96.662 -130.4026
85.357134 96.668 -130.8793
85.975667 96.683 -131.3524
86.598682 96.712 -131.8218
87.226212 96.757 -132.2872
87.858289 96.823 -132.7485
88.494946 96.910 -133.2058
89.136217 97.022 -133.6593
89.782135 97.157 -134.1090
90.432733 97.315 -134.5554
91.088046 97.494 -134.9987
91.748108 97.690 -135.4392
92.412952 97.898 -135.8770
93.082615 98.112 -136.3124
93.757130 98.327 -136.7453
94.436533 98.539 -137.1761
95.120859 98.741 -137.6050
95.810144 98.931 -138.0325
96.504423 99.105 -138.4592
97.203734 99.262 -138.8853
97.908112 99.401 -139.3110
98.617595 99.522 -139.7362
99.332219 99.626 -140.1606
100.052021 99.716 -140.5837
100.777039 99.793 -141.0047
101.507311 99.859 -141.4232
102.242875 99.917 -141.8386
102.983769 99.968 -142.2503
103.730032 100.014 -142.6581
104.481702 100.054 -143.0615
105.238820 100.089 -143.4605
106.001424 100.119 -143.8547
106.769554 100.142 -144.2443
107.543250 100.156 -144.6292
108.322553 100.160 -145.0096
109.107503 100.152 -145.3857
109.898141 100.132 -145.7578
110.694508 100.098 -146.1261
111.496646 100.050 -146.4913
112.304596 99.990 -146.8538
113.118402 99.918 -147.2142
113.938104 99.836 -147.5730
114.763747 99.746 -147.9306
115.595372 99.650 -148.2872
116.433024 99.551 -148.6431
117.276746 99.452 -148.9982
118.126581 99.353 -149.3529
118.982575 99.256 -149.7072
119.844772 99.162 -150.0612
120.713217 99.072 -150.4150
121.587954 98.985 -150.7687
122.469031 98.900 -151.1220
123.356492 98.816 -151.4752
124.250384 98.732 -151.8281
125.150753 98.646 -152.1809
126.057647 98.557 -152.5337
126.971113 98.464 -152.8865
127.891198 98.365 -153.2393
128.817950 98.260 -153.5922
129.751418 98.148 -153.9448
130.691651 98.031 -154.2970
131.638696 97.908 -154.6487
132.592604 97.781 -155.0000
133.553425 97.652 -155.3507
134.521208 97.524 -155.7009
135.496004 97.400 -156.0506
136.477864 97.284 -156.3997
137.466839 97.178 -156.7482
138.462981 97.086 -157.0959
139.466340 97.010 -157.4427
140.476971 96.952 -157.7885
141.494925 96.913 -158.1329
142.520256 96.891 -158.4760
143.553016 96.886 -158.8177
144.593260 96.894 -159.1580
145.641043 96.911 -159.4969
146.696418 96.933 -159.8347
147.759441 96.958 -160.1714
148.830166 96.980 -160.5070
149.908651 96.998 -160.8418
150.994951 97.009 -161.1756
152.089123 97.013 -161.5083
153.191223 97.009 -161.8399
154.301310 96.998 -162.1702
155.419441 96.981 -162.4990
156.545674 96.961 -162.8261
157.680069 96.937 -163.1518
158.822683 96.914 -163.4762
159.973578 96.891 -163.7998
161.132813 96.869 -164.1227
162.300447 96.851 -164.4453
163.476543 96.835 -164.7674
164.661162 96.823 -165.0888
165.854364 96.814 -165.4088
167.056213 96.808 -165.7270
168.266772 96.806 -166.0429
169.486102 96.809 -166.3560
170.714268 96.815 -166.6662
171.951334 96.826 -166.9734
173.197364 96.840 -167.2775
174.452424 96.859 -167.5788
175.716578 96.882 -167.8773
176.989893 96.908 -168.1732
178.272434 96.937 -168.4667
179.564270 96.966 -168.7577
180.865467 96.997 -169.0466
182.176092 97.026 -169.3333
183.496216 97.054 -169.6180
184.825905 97.079 -169.9008
186.165229 97.100 -170.1818
187.514259 97.119 -170.4609
188.873065 97.134 -170.7381
190.241717 97.147 -171.0132
191.620287 97.158 -171.2859
193.008847 97.167 -171.5562
194.407468 97.176 -171.8240
195.816225 97.184 -172.0894
197.235190 97.191 -172.3525
198.664438 97.198 -172.6136
200.104042 97.205 -172.8731
201.554078 97.210 -173.1310
203.014622 97.213 -173.3876
204.485750 97.214 -173.6426
205.967538 97.212 -173.8961
207.460064 97.206 -174.1478
208.963405 97.197 -174.3975
210.477640 97.184 -174.6453
212.002848 97.167 -174.8913
213.539108 97.148 -175.1355
215.086500 97.126 -175.3781
216.645105 97.101 -175.6193
218.215005 97.075 -175.8592
219.796281 97.046 -176.0978
221.389015 97.016 -176.3351
222.993292 96.982 -176.5710
224.609193 96.946 -176.8056
226.236804 96.905 -177.0387
227.876209 96.860 -177.2702
229.527494 96.809 -177.5003
231.190745 96.753 -177.7287
232.866048 96.691 -177.9554
234.553491 96.624 -178.1802
236.253163 96.552 -178.4029
237.965150 96.475 -178.6234
239.689544 96.396 -178.8414
241.426433 96.313 -179.0565
243.175909 96.230 -179.2684
244.938062 96.146 -179.4766
246.712984 96.063 -179.6806
248.500768 95.981 -179.8799
250.301507 95.902 179.9259
252.115295 95.825 179.7370
253.942226 95.752 179.5537
255.782396 95.684 179.3762
257.635901 95.620 179.2047
259.502837 95.561 179.0394
261.383301 95.509 178.8807
263.277392 95.462 178.7289
265.185209 95.421 178.5845
267.106850 95.387 178.4479
269.042417 95.359 178.3194
270.992009 95.337 178.1993
272.955729 95.321 178.0873
274.933678 95.310 177.9829
276.925961 95.304 177.8852
278.932681 95.303 177.7930
280.953942 95.306 177.7050
282.989850 95.313 177.6193
285.040511 95.324 177.5344
287.106032 95.339 177.4483
289.186521 95.360 177.3595
291.282086 95.385 177.2666
293.392836 95.417 177.1687
295.518881 95.454 177.0652
297.660333 95.498 176.9560
299.817302 95.548 176.8413
301.989902 95.602 176.7217
304.178245 95.660 176.5977
306.382446 95.719 176.4703
308.602620 95.778 176.3400
310.838882 95.836 176.2077
313.091348 95.889 176.0740
315.360137 95.937 175.9393
317.645367 95.979 175.8042
319.947156 96.013 175.6689
322.265625 96.038 175.5335
324.600895 96.054 175.3984
326.953086 96.060 175.2637
329.322323 96.055 175.1298
331.708729 96.040 174.9970
334.112427 96.014 174.8659
336.533543 95.978 174.7368
338.972204 95.931 174.6100
341.428536 95.875 174.4859
343.902668 95.810 174.3646
346.394729 95.738 174.2462
348.904848 95.659 174.1306
351.433156 95.577 174.0178
353.979786 95.493 173.9077
356.544869 95.410 173.8004
359.128540 95.330 173.6957
361.730934 95.256 173.5936
364.352185 95.192 173.4938
366.992431 95.140 173.3964
369.651810 95.102 173.3014
372.330459 95.081 173.2086
375.028519 95.077 173.1184
377.746130 95.091 173.0306
380.483434 95.122 172.9454
383.240574 95.169 172.8626
386.017693 95.230 172.7822
388.814937 95.303 172.7039
391.632450 95.384 172.6276
394.470380 95.471 172.5530
397.328875 95.561 172.4798
400.208084 95.652 172.4077
403.108157 95.742 172.3365
406.029245 95.831 172.2661
408.971500 95.916 172.1962
411.935076 95.998 172.1268
414.920127 96.077 172.0579
417.926810 96.154 171.9894
420.955280 96.228 171.9216
424.005695 96.301 171.8547
427.078215 96.374 171.7888
430.173000 96.447 171.7241
433.290211 96.520 171.6608
436.430010 96.594 171.5987
439.592562 96.667 171.5380
442.778031 96.738 171.4786
445.986583 96.806 171.4206
449.218386 96.871 171.3640
452.473607 96.930 171.3089
455.752418 96.981 171.2553
459.054987 97.024 171.2033
462.381489 97.058 171.1528
465.732096 97.081 171.1039
469.106983 97.095 171.0565
472.506325 97.097 171.0103
475.930301 97.091 170.9653
479.379088 97.075 170.9213
482.852867 97.051 170.8784
486.351817 97.020 170.8365
489.876123 96.983 170.7960
493.425968 96.942 170.7568
497.001536 96.896 170.7194
500.603014 96.846 170.6837
504.230589 96.793 170.6501
507.884452 96.737 170.6186
511.564792 96.678 170.5893
515.271802 96.616 170.5625
519.005673 96.552 170.5381
522.766602 96.486 170.5162
526.554785 96.421 170.4970
530.370418 96.357 170.4802
534.213700 96.297 170.4656
538.084833 96.241 170.4528
541.984018 96.194 170.4414
545.911457 96.154 170.4312
549.867357 96.124 170.4217
553.851922 96.104 170.4129
557.865362 96.092 170.4048
561.907884 96.089 170.3974
565.979700 96.091 170.3907
570.081022 96.097 170.3849
574.212064 96.105 170.3798
578.373042 96.112 170.3754
582.564171 96.118 170.3719
586.785671 96.119 170.3691
591.037762 96.115 170.3672
595.320665 96.105 170.3664
599.634604 96.089 170.3667
603.979804 96.065 170.3683
608.356491 96.035 170.3715
612.764893 95.998 170.3765
617.205240 95.956 170.3834
621.677763 95.909 170.3921
626.182696 95.859 170.4026
630.720274 95.808 170.4144
635.290733 95.757 170.4271
639.894312 95.709 170.4401
644.531250 95.666 170.4529
649.201789 95.628 170.4651
653.906173 95.597 170.4766
658.644647 95.574 170.4873
663.417457 95.558 170.4972
668.224854 95.549 170.5064
673.067086 95.546 170.5151
677.944408 95.547 170.5234
682.857073 95.551 170.5316
687.805336 95.556 170.5397
692.789457 95.561 170.5478
697.809695 95.565 170.5559
702.866312 95.565 170.5638
707.959571 95.562 170.5712
713.089738 95.554 170.5779
718.257080 95.543 170.5840
723.461867 95.526 170.5893
728.704370 95.506 170.5940
733.984862 95.482 170.5983
739.303619 95.454 170.6027
744.660918 95.425 170.6074
750.057038 95.393 170.6130
755.492260 95.361 170.6199
760.966869 95.327 170.6284
766.481148 95.293 170.6385
772.035387 95.257 170.6503
777.629873 95.220 170.6633
783.264900 95.182 170.6768
788.940760 95.140 170.6899
794.657750 95.096 170.7014
800.416168 95.047 170.7101
806.216313 94.993 170.7149
812.058489 94.933 170.7149
817.943000 94.868 170.7094
823.870152 94.797 170.6979
829.840255 94.721 170.6800
835.853619 94.639 170.6557
841.910559 94.553 170.6249
848.011390 94.463 170.5875
854.156430 94.371 170.5437
860.346000 94.277 170.4933
866.580422 94.183 170.4363
872.860020 94.090 170.3727
879.185124 93.998 170.3024
885.556062 93.910 170.2250
891.973166 93.825 170.1401
898.436771 93.745 170.0473
904.947215 93.671 169.9459
911.504835 93.604 169.8355
918.109975 93.544 169.7155
924.762978 93.491 169.5859
931.464192 93.446 169.4471
938.213966 93.407 169.3008
945.012651 93.374 169.1497
951.860602 93.346 168.9987
958.758176 93.322 168.8541
965.705733 93.301 168.7250
972.703635 93.282 168.6217
979.752246 93.265 168.5558
986.851935 93.251 168.5389
994.003071 93.241 168.5804
1001.206027 93.236 168.6861
1008.461179 93.241 168.8560
1015.768904 93.256 169.0836
1023.129584 93.286 169.3563
1030.543603 93.331 169.6567
1038.011347 93.393 169.9659
1045.533205 93.472 170.2651
1053.109569 93.567 170.5388
1060.740836 93.676 170.7757
1068.427401 93.796 170.9688
1076.169666 93.925 171.1154
1083.968035 94.060 171.2162
1091.822915 94.199 171.2748
1099.734713 94.337 171.2963
1107.703844 94.474 171.2868
1115.730723 94.606 171.2524
1123.815768 94.733 171.1988
1131.959400 94.852 171.1308
1140.162045 94.964 171.0520
1148.424129 95.068 170.9648
1156.746083 95.165 170.8710
1165.128342 95.254 170.7712
1173.571343 95.338 170.6660
1182.075524 95.417 170.5554
1190.641331 95.493 170.4397
1199.269209 95.566 170.3187
1207.959608 95.639 170.1924
1216.712981 95.710 170.0605
1225.529785 95.781 169.9225
1234.410479 95.852 169.7777
1243.355526 95.922 169.6254
1252.365393 95.991 169.4654
1261.440549 96.056 169.2979
1270.581467 96.119 169.1235
1279.788624 96.177 168.9435
1289.062500 96.230 168.7590
1298.403578 96.278 168.5717
1307.812346 96.321 168.3828
1317.289293 96.359 168.1932
1326.834914 96.392 168.0038
1336.449707 96.421 167.8151
1346.134173 96.445 167.6280
1355.888816 96.466 167.4429
1365.714145 96.482 167.2608
1375.610673 96.495 167.0825
1385.578915 96.504 166.9086
1395.619391 96.509 166.7397
1405.732624 96.512 166.5758
1415.919142 96.511 166.4167
1426.179476 96.507 166.2621
1436.514160 96.501 166.1124
1446.923734 96.493 165.9680
1457.408740 96.484 165.8305
1467.969724 96.474 165.7014
1478.607238 96.466 165.5819
1489.321836 96.459 165.4725
1500.114076 96.454 165.3722
1510.984521 96.452 165.2797
1521.933737 96.453 165.1932
1532.962297 96.458 165.1118
1544.070773 96.464 165.0356
1555.259747 96.472 164.9656
1566.529800 96.481 164.9039
1577.881521 96.490 164.8528
1589.315501 96.500 164.8145
1600.832336 96.509 164.7903
1612.432627 96.518 164.7809
1624.116978 96.528 164.7865
1635.886000 96.537 164.8066
1647.740304 96.546 164.8400
1659.680509 96.556 164.8853
1671.707238 96.568 164.9401
1683.821118 96.580 165.0016
1696.022780 96.594 165.0667
1708.312860 96.610 165.1324
1720.692000 96.628 165.1964
1733.160843 96.647 165.2580
1745.720041 96.666 165.3179
1758.370248 96.686 165.3781
1771.112124 96.705 165.4413
1783.946332 96.724 165.5101
1796.873543 96.742 165.5870
1809.894429 96.759 165.6733
1823.009670 96.775 165.7696
1836.219950 96.790 165.8755
1849.525956 96.804 165.9899
1862.928384 96.818 166.1113
1876.427931 96.831 166.2375
1890.025301 96.844 166.3659
1903.721204 96.858 166.4933
1917.516352 96.871 166.6167
1931.411466 96.884 166.7337
1945.407270 96.895 166.8437
1959.504493 96.904 166.9485
1973.703870 96.909 167.0519
1988.006142 96.909 167.1586
2002.412054 96.904 167.2731
2016.922357 96.893 167.3990
2031.537808 96.876 167.5388
2046.259169 96.852 167.6931
2061.087206 96.822 167.8605
2076.022694 96.786 168.0376
2091.066410 96.745 168.2194
2106.219139 96.698 168.4005
2121.481671 96.647 168.5764
2136.854802 96.592 168.7438
2152.339333 96.534 168.9019
2167.936071 96.473 169.0513
2183.645829 96.409 169.1941
2199.469427 96.345 169.3329
2215.407689 96.281 169.4712
2231.461446 96.219 169.6117
2247.631536 96.159 169.7562
2263.918800 96.103 169.9049
2280.324089 96.051 170.0564
2296.848258 96.005 170.2080
2313.492167 95.963 170.3568
2330.256685 95.926 170.4998
2347.142685 95.894 170.6345
2364.151049 95.866 170.7590
2381.282662 95.840 170.8719
2398.538418 95.817 170.9728
2415.919216 95.796 171.0623
2433.425962 95.777 171.1423
2451.059570 95.759 171.2155
2468.820958 95.742 171.2845
2486.711052 95.728 171.3508
2504.730786 95.716 171.4144
2522.881098 95.707 171.4749
2541.162934 95.701 171.5322
2559.577248 95.700 171.5870
2578.125000 95.703 171.6407
2596.807157 95.713 171.6955
2615.624692 95.729 171.7531
2634.578586 95.752 171.8151
2653.669829 95.785 171.8820
2672.899414 95.827 171.9535
2692.268345 95.879 172.0298
2711.777632 95.941 172.1118
2731.428290 96.012 172.2017
2751.221345 96.092 172.3024
2771.157829 96.180 172.4172
2791.238781 96.274 172.5478
2811.465248 96.375 172.6945
2831.838284 96.481 172.8557
2852.358952 96.590 173.0283
2873.028321 96.700 173.2082
2893.847468 96.811 173.3903
2914.817480 96.920 173.5689
2935.939449 97.025 173.7381
2957.214476 97.126 173.8925
2978.643672 97.220 174.0272
3000.228152 97.306 174.1390
3021.969041 97.385 174.2266
3043.867475 97.454 174.2902
3065.924593 97.514 174.3310
3088.141547 97.565 174.3509
3110.519493 97.607 174.3522
3133.059600 97.641 174.3371
3155.763041 97.669 174.3077
3178.631001 97.690 174.2659
3201.664672 97.705 174.2130
3224.865254 97.717 174.1496
3248.233957 97.724 174.0759
3271.771999 97.729 173.9914
3295.480608 97.731 173.8958
3319.361019 97.730 173.7890
3343.414477 97.727 173.6718
3367.642236 97.722 173.5459
3392.045560 97.714 173.4136
3416.625721 97.704 173.2778
3441.383999 97.693 173.1420
3466.321686 97.680 173.0102
3491.440082 97.666 172.8863
3516.740496 97.652 172.7742
3542.224247 97.639 172.6767
3567.892664 97.629 172.5956
3593.747085 97.623 172.5316
3619.788858 97.622 172.4842
3646.019340 97.626 172.4518
3672.439900 97.638 172.4321
3699.051913 97.656 172.4219
3725.856768 97.682 172.4185
3752.855862 97.716 172.4194
3780.050603 97.756 172.4226
3807.442408 97.803 172.4269
3835.032705 97.857 172.4312
3862.822933 97.917 172.4340
3890.814540 97.982 172.4338
3919.008986 98.053 172.4286
3947.407741 98.128 172.4162
3976.012284 98.208 172.3939
4004.824108 98.291 172.3590
4033.844715 98.377 172.3085
4063.075616 98.466 172.2394
4092.518337 98.556 172.1484
4122.174412 98.648 172.0316
4152.045387 98.740 171.8850
4182.132820 98.832 171.7046
4212.438278 98.923 171.4873
4242.963342 99.012 171.2309
4273.709604 99.098 170.9341
4304.678665 99.180 170.5965
4335.872141 99.257 170.2183
4367.291658 99.327 169.8002
4398.938854 99.391 169.3436
4430.815378 99.447 168.8503
4462.922893 99.492 168.3233
4495.263072 99.528 167.7664
4527.837601 99.552 167.1843
4560.648179 99.563 166.5823
4593.696515 99.562 165.9660
4626.984334 99.547 165.3407
4660.513370 99.520 164.7113
4694.285371 99.481 164.0822
4728.302098 99.431 163.4570
4762.565324 99.370 162.8386
4797.076835 99.300 162.2292
4831.838432 99.222 161.6302
4866.851925 99.138 161.0420
4902.119140 99.049 160.4638
4937.641916 98.958 159.8934
4973.422105 98.864 159.3271
5009.461572 98.770 158.7605
5045.762195 98.677 158.1880
5082.325868 98.584 157.6041
5119.154496 98.492 157.0034
5156.250000 98.399 156.3807
5193.614313 98.306 155.7317
5231.249383 98.212 155.0530
5269.157173 98.113 154.3431
5307.339658 98.009 153.6021
5345.798829 97.897 152.8325
5384.536691 97.776 152.0392
5423.555263 97.642 151.2297
5462.856580 97.494 150.4143
5502.442691 97.330 149.6060
5542.315659 97.149 148.8208
5582.477563 96.948 148.0773
5622.930497 96.729 147.3962
5663.676569 96.492 146.7992
5704.717904 96.236 146.3090
5746.056642 95.965 145.9483
5787.694937 95.680 145.7400
5829.634960 95.385 145.7068
5871.878898 95.082 145.8706
5914.428953 94.777 146.2521
5957.287343 94.474 146.8690
6000.456303 94.178 147.7342
6043.938083 93.895 148.8539
6087.734950 93.632 150.2244
6131.849187 93.393 151.8310
6176.283094 93.182 153.6466
6221.038987 93.004 155.6332
6266.119200 92.859 157.7443
6311.526083 92.747 159.9283
6357.262002 92.667 162.1331
6403.329344 92.616 164.3090
6449.730508 92.591 166.4130
6496.467914 92.586 168.4101
6543.543998 92.598 170.2745
6590.961215 92.623 171.9891
6638.722037 92.657 173.5441
6686.828954 92.697 174.9362
6735.284473 92.741 176.1671
6784.091120 92.786 177.2434
6833.251441 92.830 178.1756
6882.767998 92.871 178.9772
6932.643372 92.909 179.6642
6982.880164 92.943 -179.7463
7033.480992 92.972 -179.2369
7084.448495 92.996 -178.7904
7135.785329 93.014 -178.3903
7187.494171 93.028 -178.0205
7239.577717 93.036 -177.6661
7292.038681 93.040 -177.3125
7344.879799 93.038 -176.9462
7398.103826 93.031 -176.5550
7451.713536 93.019 -176.1285
7505.711724 93.004 -175.6586
7560.101205 92.984 -175.1409
7614.884815 92.961 -174.5750
7670.065409 92.935 -173.9660
7725.645865 92.906 -173.3241
7781.629080 92.876 -172.6653
7838.017972 92.843 -172.0093
7894.815481 92.807 -171.3780
7952.024569 92.765 -170.7920
8009.648217 92.715 -170.2668
8067.689429 92.654 -169.8088
8126.151233 92.576 -169.4116
8185.036674 92.478 -169.0520
8244.348824 92.356 -168.6877
8304.090774 92.207 -168.2557
8364.265639 92.030 -167.6725
8424.876556 91.828 -166.8379
8485.926684 91.608 -165.6429
8547.419207 91.382 -163.9855
8609.357330 91.166 -161.7930
8671.744282 90.983 -159.0507
8734.583316 90.854 -155.8251
8797.877707 90.800 -152.2702
8861.630756 90.833 -148.6040
8925.845785 90.957 -145.0607
8990.526143 91.165 -141.8387
9055.675202 91.446 -139.0708
9121.296357 91.782 -136.8209
9187.393031 92.158 -135.1001
9253.968668 92.558 -133.8884
9321.026740 92.969 -133.1529
9388.570742 93.381 -132.8586
9456.604196 93.785 -132.9744
9525.130648 94.172 -133.4739
9594.153671 94.536 -134.3348
9663.676863 94.871 -135.5365
9733.703850 95.170 -137.0577
9804.238280 95.429 -138.8746
9875.283832 95.641 -140.9588
9946.844210 95.804 -143.2771
10018.923143 95.912 -145.7906
10091.524390 95.965 -148.4554
10164.651736 95.961 -151.2240
10238.308993 95.900 -154.0467
10312.500000 95.784 -156.8744
10387.228626 95.616 -159.6610
10462.498767 95.401 -162.3658
10538.314345 95.143 -164.9550
10614.679315 94.849 -167.4033
10691.597657 94.524 -169.6941
10769.073381 94.175 -171.8193
10847.110526 93.806 -173.7785
10925.713161 93.423 -175.5780
11004.885382 93.029 -177.2291
11084.631318 92.626 -178.7464
11164.955126 92.215 179.8539
11245.860993 91.796 178.5561
11327.353138 91.369 177.3460
11409.435808 90.932 176.2133
11492.113283 90.485 175.1519
11575.389873 90.024 174.1616
11659.269920 89.549 173.2479
11743.757796 89.060 172.4226
11828.857906 88.555 171.7036
11914.574686 88.036 171.1136
12000.912606 87.505 170.6798
12087.876166 86.964 170.4311
12175.469900 86.421 170.3966
12263.698373 85.881 170.6015
12352.566187 85.355 171.0627
12442.077974 84.857 171.7821
12532.238400 84.401 172.7388
12623.052165 84.006 173.8806
12714.524005 83.693 175.1184
12806.658687 83.479 176.3268
12899.461015 83.376 177.3537
12992.935827 83.390 178.0389
13087.087996 83.514 178.2352
13181.922430 83.736 177.8259
13277.444074 84.034 176.7344
13373.657907 84.388 174.9230
13470.568945 84.777 172.3865
13568.182241 85.182 169.1428
13666.502883 85.587 165.2236
13765.535996 85.980 160.6694
13865.286744 86.350 155.5256
13965.760328 86.687 149.8423
14066.961984 86.983 143.6745
14168.896989 87.232 137.0830
14271.570658 87.428 130.1352
14374.988342 87.567 122.9047
14479.155433 87.648 115.4692
14584.077362 87.670 107.9072
14689.759598 87.637 100.2943
14796.207652 87.552 92.6988
14903.427072 87.421 85.1799
15011.423448 87.248 77.7860
15120.202410 87.041 70.5556
15229.769630 86.805 63.5173
15340.130819 86.545 56.6902
15451.291730 86.267 50.0842
15563.258160 85.975 43.7010
15676.035944 85.673 37.5354
15789.630962 85.362 31.5786
15904.049137 85.043 25.8214
16019.296433 84.715 20.2572
16135.378859 84.375 14.8850
16252.302465 84.020 9.7102
16370.073348 83.647 4.7454
16488.697648 83.255 0.0110
16608.181548 82.843 -4.4639
16728.531278 82.411 -8.6400
16849.753112 81.964 -12.4679
16971.853368 81.510 -15.8898
17094.838414 81.062 -18.8470
17218.714660 80.644 -21.2949
17343.488565 80.284 -23.2264
17469.166632 80.021 -24.6997
17595.755415 79.891 -25.8590
17723.261512 79.917 -26.9324
17851.691571 80.107 -28.1973
17981.052287 80.444 -29.9255
18111.350404 80.895 -32.3341
18242.592715 81.422 -35.5610
18374.786062 81.987 -39.6675
18507.937336 82.558 -44.6519
18642.053479 83.112 -50.4615
18777.141484 83.630 -56.9966
18913.208391 84.099 -64.1058
19050.261296 84.511 -71.5800
19188.307342 84.860 -79.1511
19327.353727 85.146 -86.5037
19467.407699 85.371 -93.2967
19608.476560 85.541 -99.1968
19750.567664 85.660 -103.9065
19893.688419 85.736 -107.1864
20037.846286 85.772 -108.8694
