* Measurement data measured by REW V5.31.3
* Source: EXCL: Headset (USB-C to 3.5mm Headphone Jack Adapter), MICROPHONE (Master Volume), 0, volume: 0.260
* Format: 256k Log Swept Sine, 1 sweep at -12.0 dBFS with no timing reference
* Dated: Feb 9, 2025 9:35:12 PM
* REW Settings:
*  C-weighting compensation: Off
*  Target level: 75.0 dB
* Note: ; 
* Measurement: HD650 (Worn) L5
* Smoothing: 1/6 octave
* Frequency Step: 96 ppo
* Start Frequency: 20.0 Hz
*
* Freq(Hz) SPL(dB) Phase(degrees)
20.141602 90.456 -40.5885
20.287556 90.473 -40.8123
20.434568 90.494 -41.1124
20.582645 90.514 -41.4807
20.731796 90.530 -41.9085
20.882027 90.538 -42.3867
21.033346 90.536 -42.9063
21.185763 90.523 -43.4589
21.339284 90.496 -44.0363
21.493917 90.457 -44.6312
21.649671 90.407 -45.2367
21.806553 90.346 -45.8467
21.964572 90.279 -46.4561
22.123737 90.206 -47.0608
22.284054 90.133 -47.6577
22.445534 90.061 -48.2450
22.608183 89.995 -48.8220
22.772012 89.936 -49.3894
22.937027 89.888 -49.9483
23.103238 89.852 -50.5009
23.270654 89.830 -51.0496
23.439282 89.822 -51.5963
23.609133 89.829 -52.1430
23.780215 89.850 -52.6906
23.952536 89.885 -53.2394
24.126106 89.933 -53.7886
24.300934 89.991 -54.3368
24.477028 90.060 -54.8826
24.654399 90.136 -55.4240
24.833055 90.219 -55.9598
25.013005 90.307 -56.4896
25.194260 90.399 -57.0137
25.376828 90.492 -57.5339
25.560719 90.586 -58.0526
25.745942 90.679 -58.5733
25.932508 90.769 -59.0994
26.120426 90.855 -59.6341
26.309705 90.936 -60.1797
26.500356 91.011 -60.7369
26.692388 91.080 -61.3050
26.885812 91.141 -61.8818
27.080638 91.194 -62.4636
27.276876 91.241 -63.0460
27.474535 91.283 -63.6247
27.673627 91.321 -64.1961
27.874161 91.357 -64.7577
28.076149 91.396 -65.3091
28.279600 91.440 -65.8518
28.484526 91.493 -66.3887
28.690937 91.558 -66.9242
28.898843 91.638 -67.4632
29.108256 91.735 -68.0102
29.319186 91.851 -68.5690
29.531645 91.984 -69.1422
29.745644 92.134 -69.7308
29.961193 92.298 -70.3348
30.178304 92.473 -70.9528
30.396989 92.654 -71.5829
30.617258 92.837 -72.2226
30.839123 93.016 -72.8690
31.062596 93.186 -73.5185
31.287688 93.342 -74.1671
31.514412 93.478 -74.8103
31.742778 93.592 -75.4427
31.972800 93.679 -76.0589
32.204488 93.737 -76.6538
32.437855 93.765 -77.2234
32.672913 93.764 -77.7652
32.909674 93.733 -78.2794
33.148151 93.676 -78.7685
33.388356 93.594 -79.2375
33.630302 93.492 -79.6932
33.874001 93.373 -80.1429
34.119466 93.240 -80.5938
34.366710 93.098 -81.0518
34.615745 92.951 -81.5208
34.866585 92.802 -82.0026
35.119243 92.657 -82.4969
35.373731 92.518 -83.0020
35.630064 92.388 -83.5149
35.888254 92.273 -84.0325
36.148315 92.174 -84.5519
36.410261 92.094 -85.0710
36.674104 92.036 -85.5884
36.939860 92.000 -86.1041
37.207542 91.988 -86.6189
37.477163 92.000 -87.1344
37.748738 92.036 -87.6526
38.022281 92.095 -88.1752
38.297806 92.177 -88.7037
38.575327 92.280 -89.2383
38.854860 92.403 -89.7784
39.136419 92.545 -90.3222
39.420017 92.706 -90.8674
39.705671 92.884 -91.4116
39.993395 93.078 -91.9526
40.283203 93.288 -92.4890
40.575112 93.512 -93.0203
40.869136 93.747 -93.5468
41.165290 93.993 -94.0694
41.463591 94.245 -94.5892
41.764053 94.503 -95.1075
42.066693 94.763 -95.6255
42.371525 95.024 -96.1441
42.678567 95.283 -96.6645
42.987834 95.537 -97.1870
43.299341 95.786 -97.7119
43.613106 96.027 -98.2389
43.929145 96.258 -98.7669
44.247473 96.479 -99.2942
44.568109 96.687 -99.8186
44.891068 96.881 -100.3379
45.216367 97.061 -100.8501
45.544023 97.224 -101.3542
45.874054 97.371 -101.8499
46.206476 97.500 -102.3381
46.541307 97.612 -102.8205
46.878565 97.706 -103.2987
47.218266 97.782 -103.7746
47.560429 97.842 -104.2493
47.905072 97.885 -104.7232
48.252212 97.914 -105.1960
48.601867 97.931 -105.6667
48.954056 97.936 -106.1341
49.308798 97.933 -106.5972
49.666109 97.922 -107.0549
50.026010 97.906 -107.5068
50.388520 97.886 -107.9531
50.753656 97.863 -108.3946
51.121437 97.841 -108.8325
51.491884 97.819 -109.2685
51.865016 97.798 -109.7040
52.240851 97.780 -110.1400
52.619410 97.765 -110.5766
53.000712 97.754 -111.0135
53.384777 97.747 -111.4498
53.771625 97.743 -111.8848
54.161276 97.742 -112.3179
54.553751 97.744 -112.7493
54.949070 97.747 -113.1792
55.347254 97.751 -113.6083
55.748323 97.755 -114.0370
56.152298 97.758 -114.4650
56.559201 97.759 -114.8918
56.969052 97.758 -115.3164
57.381873 97.753 -115.7381
57.797686 97.746 -116.1562
58.216512 97.735 -116.5713
58.638373 97.721 -116.9846
59.063291 97.704 -117.3990
59.491288 97.685 -117.8175
59.922386 97.665 -118.2431
60.356608 97.644 -118.6779
60.793977 97.621 -119.1222
61.234515 97.599 -119.5748
61.678246 97.576 -120.0336
62.125192 97.554 -120.4958
62.575377 97.532 -120.9587
63.028824 97.512 -121.4204
63.485557 97.494 -121.8795
63.945599 97.477 -122.3354
64.408975 97.462 -122.7876
64.875709 97.450 -123.2362
65.345825 97.441 -123.6817
65.819348 97.435 -124.1246
66.296302 97.431 -124.5656
66.776713 97.431 -125.0056
67.260604 97.434 -125.4451
67.748002 97.440 -125.8847
68.238932 97.448 -126.3245
68.733420 97.459 -126.7646
69.231490 97.472 -127.2052
69.733170 97.488 -127.6463
70.238485 97.505 -128.0880
70.747463 97.524 -128.5306
71.260128 97.545 -128.9740
71.776508 97.567 -129.4182
72.296630 97.590 -129.8627
72.820521 97.615 -130.3073
73.348209 97.640 -130.7516
73.879720 97.665 -131.1953
74.415083 97.691 -131.6381
74.954326 97.716 -132.0802
75.497475 97.741 -132.5215
76.044561 97.765 -132.9621
76.595612 97.788 -133.4020
77.150655 97.809 -133.8412
77.709720 97.827 -134.2795
78.272837 97.844 -134.7168
78.840034 97.857 -135.1529
79.411342 97.867 -135.5879
79.986789 97.874 -136.0217
80.566406 97.877 -136.4542
81.150224 97.876 -136.8854
81.738272 97.872 -137.3153
82.330581 97.866 -137.7439
82.927182 97.858 -138.1711
83.528107 97.849 -138.5969
84.133386 97.842 -139.0210
84.743051 97.838 -139.4430
85.357134 97.841 -139.8627
85.975667 97.853 -140.2797
86.598682 97.878 -140.6938
87.226212 97.920 -141.1051
87.858289 97.981 -141.5138
88.494946 98.064 -141.9201
89.136217 98.170 -142.3246
89.782135 98.300 -142.7273
90.432733 98.453 -143.1283
91.088046 98.626 -143.5275
91.748108 98.817 -143.9245
92.412952 99.020 -144.3190
93.082615 99.229 -144.7106
93.757130 99.440 -145.0989
94.436533 99.647 -145.4839
95.120859 99.846 -145.8656
95.810144 100.032 -146.2440
96.504423 100.202 -146.6196
97.203734 100.356 -146.9928
97.908112 100.492 -147.3641
98.617595 100.610 -147.7341
99.332219 100.712 -148.1030
100.052021 100.799 -148.4711
100.777039 100.874 -148.8386
101.507311 100.938 -149.2054
102.242875 100.994 -149.5711
102.983769 101.044 -149.9355
103.730032 101.088 -150.2984
104.481702 101.128 -150.6593
105.238820 101.163 -151.0182
106.001424 101.191 -151.3753
106.769554 101.213 -151.7306
107.543250 101.226 -152.0844
108.322553 101.229 -152.4367
109.107503 101.219 -152.7877
109.898141 101.197 -153.1373
110.694508 101.160 -153.4854
111.496646 101.109 -153.8320
112.304596 101.045 -154.1768
113.118402 100.969 -154.5198
113.938104 100.883 -154.8606
114.763747 100.788 -155.1990
115.595372 100.687 -155.5349
116.433024 100.583 -155.8681
117.276746 100.477 -156.1986
118.126581 100.372 -156.5265
118.982575 100.269 -156.8521
119.844772 100.168 -157.1755
120.713217 100.071 -157.4971
121.587954 99.977 -157.8168
122.469031 99.885 -158.1347
123.356492 99.793 -158.4507
124.250384 99.702 -158.7647
125.150753 99.609 -159.0765
126.057647 99.513 -159.3861
126.971113 99.412 -159.6934
127.891198 99.306 -159.9984
128.817950 99.193 -160.3011
129.751418 99.074 -160.6015
130.691651 98.948 -160.8997
131.638696 98.817 -161.1958
132.592604 98.682 -161.4897
133.553425 98.545 -161.7814
134.521208 98.409 -162.0710
135.496004 98.278 -162.3584
136.477864 98.154 -162.6437
137.466839 98.041 -162.9268
138.462981 97.942 -163.2079
139.466340 97.860 -163.4866
140.476971 97.797 -163.7631
141.494925 97.752 -164.0371
142.520256 97.726 -164.3087
143.553016 97.716 -164.5779
144.593260 97.720 -164.8449
145.641043 97.733 -165.1098
146.696418 97.752 -165.3729
147.759441 97.773 -165.6344
148.830166 97.792 -165.8947
149.908651 97.807 -166.1539
150.994951 97.816 -166.4121
152.089123 97.817 -166.6697
153.191223 97.811 -166.9267
154.301310 97.799 -167.1834
155.419441 97.781 -167.4399
156.545674 97.760 -167.6965
157.680069 97.737 -167.9531
158.822683 97.713 -168.2098
159.973578 97.690 -168.4666
161.132813 97.670 -168.7233
162.300447 97.652 -168.9800
163.476543 97.638 -169.2368
164.661162 97.627 -169.4937
165.854364 97.620 -169.7508
167.056213 97.617 -170.0081
168.266772 97.617 -170.2657
169.486102 97.622 -170.5233
170.714268 97.631 -170.7811
171.951334 97.644 -171.0389
173.197364 97.662 -171.2968
174.452424 97.683 -171.5547
175.716578 97.708 -171.8127
176.989893 97.737 -172.0705
178.272434 97.768 -172.3278
179.564270 97.800 -172.5842
180.865467 97.832 -172.8394
182.176092 97.863 -173.0932
183.496216 97.893 -173.3452
184.825905 97.919 -173.5955
186.165229 97.943 -173.8440
187.514259 97.963 -174.0907
188.873065 97.980 -174.3358
190.241717 97.994 -174.5794
191.620287 98.005 -174.8216
193.008847 98.015 -175.0629
194.407468 98.024 -175.3033
195.816225 98.032 -175.5430
197.235190 98.039 -175.7821
198.664438 98.046 -176.0205
200.104042 98.052 -176.2581
201.554078 98.057 -176.4949
203.014622 98.060 -176.7305
204.485750 98.060 -176.9650
205.967538 98.058 -177.1980
207.460064 98.052 -177.4294
208.963405 98.043 -177.6591
210.477640 98.031 -177.8869
212.002848 98.015 -178.1128
213.539108 97.995 -178.3367
215.086500 97.973 -178.5586
216.645105 97.949 -178.7789
218.215005 97.922 -178.9975
219.796281 97.894 -179.2145
221.389015 97.863 -179.4299
222.993292 97.829 -179.6435
224.609193 97.792 -179.8554
226.236804 97.751 179.9348
227.876209 97.705 179.7268
229.527494 97.654 179.5209
231.190745 97.597 179.3170
232.866048 97.535 179.1154
234.553491 97.467 178.9160
236.253163 97.394 178.7191
237.965150 97.317 178.5248
239.689544 97.237 178.3333
241.426433 97.154 178.1444
243.175909 97.070 177.9586
244.938062 96.985 177.7759
246.712984 96.901 177.5966
248.500768 96.818 177.4211
250.301507 96.737 177.2496
252.115295 96.659 177.0825
253.942226 96.584 176.9202
255.782396 96.514 176.7629
257.635901 96.448 176.6113
259.502837 96.387 176.4659
261.383301 96.332 176.3279
263.277392 96.283 176.1982
265.185209 96.240 176.0779
267.106850 96.203 175.9679
269.042417 96.173 175.8687
270.992009 96.149 175.7804
272.955729 96.131 175.7027
274.933678 96.118 175.6346
276.925961 96.111 175.5750
278.932681 96.108 175.5219
280.953942 96.110 175.4734
282.989850 96.116 175.4276
285.040511 96.126 175.3824
287.106032 96.140 175.3360
289.186521 96.160 175.2867
291.282086 96.185 175.2330
293.392836 96.215 175.1742
295.518881 96.253 175.1096
297.660333 96.296 175.0391
299.817302 96.345 174.9629
301.989902 96.399 174.8813
304.178245 96.456 174.7950
306.382446 96.515 174.7045
308.602620 96.574 174.6104
310.838882 96.631 174.5135
313.091348 96.685 174.4143
315.360137 96.733 174.3137
317.645367 96.774 174.2121
319.947156 96.808 174.1101
322.265625 96.833 174.0083
324.600895 96.849 173.9069
326.953086 96.854 173.8065
329.322323 96.850 173.7071
331.708729 96.835 173.6092
334.112427 96.810 173.5129
336.533543 96.774 173.4182
338.972204 96.727 173.3252
341.428536 96.672 173.2338
343.902668 96.607 173.1441
346.394729 96.536 173.0562
348.904848 96.458 172.9702
351.433156 96.377 172.8862
353.979786 96.294 172.8042
356.544869 96.212 172.7240
359.128540 96.133 172.6456
361.730934 96.061 172.5687
364.352185 95.998 172.4935
366.992431 95.947 172.4198
369.651810 95.911 172.3476
372.330459 95.890 172.2769
375.028519 95.888 172.2078
377.746130 95.903 172.1401
380.483434 95.935 172.0740
383.240574 95.983 172.0096
386.017693 96.045 171.9471
388.814937 96.118 171.8864
391.632450 96.200 171.8277
394.470380 96.287 171.7709
397.328875 96.377 171.7161
400.208084 96.469 171.6630
403.108157 96.560 171.6114
406.029245 96.648 171.5613
408.971500 96.733 171.5126
411.935076 96.816 171.4653
414.920127 96.895 171.4195
417.926810 96.972 171.3752
420.955280 97.046 171.3325
424.005695 97.120 171.2913
427.078215 97.193 171.2515
430.173000 97.266 171.2129
433.290211 97.339 171.1755
436.430010 97.413 171.1389
439.592562 97.486 171.1029
442.778031 97.558 171.0676
445.986583 97.628 171.0328
449.218386 97.694 170.9986
452.473607 97.754 170.9650
455.752418 97.806 170.9319
459.054987 97.851 170.8995
462.381489 97.885 170.8677
465.732096 97.910 170.8369
469.106983 97.924 170.8069
472.506325 97.927 170.7781
475.930301 97.921 170.7505
479.379088 97.905 170.7242
482.852867 97.881 170.6995
486.351817 97.851 170.6763
489.876123 97.814 170.6548
493.425968 97.772 170.6353
497.001536 97.727 170.6179
500.603014 97.677 170.6025
504.230589 97.625 170.5892
507.884452 97.569 170.5778
511.564792 97.511 170.5681
515.271802 97.450 170.5598
519.005673 97.387 170.5529
522.766602 97.322 170.5473
526.554785 97.258 170.5428
530.370418 97.195 170.5396
534.213700 97.135 170.5377
538.084833 97.080 170.5370
541.984018 97.033 170.5378
545.911457 96.993 170.5402
549.867357 96.964 170.5442
553.851922 96.943 170.5497
557.865362 96.932 170.5565
561.907884 96.928 170.5645
565.979700 96.931 170.5729
570.081022 96.937 170.5817
574.212064 96.946 170.5906
578.373042 96.954 170.5995
582.564171 96.960 170.6088
586.785671 96.962 170.6185
591.037762 96.959 170.6288
595.320665 96.950 170.6401
599.634604 96.934 170.6524
603.979804 96.911 170.6660
608.356491 96.882 170.6810
612.764893 96.845 170.6974
617.205240 96.804 170.7154
621.677763 96.758 170.7347
626.182696 96.708 170.7552
630.720274 96.658 170.7764
635.290733 96.608 170.7979
639.894312 96.560 170.8187
644.531250 96.517 170.8385
649.201789 96.479 170.8566
653.906173 96.448 170.8730
658.644647 96.424 170.8876
663.417457 96.408 170.9007
668.224854 96.398 170.9125
673.067086 96.394 170.9236
677.944408 96.394 170.9341
682.857073 96.397 170.9445
687.805336 96.401 170.9549
692.789457 96.404 170.9651
697.809695 96.406 170.9748
702.866312 96.405 170.9834
707.959571 96.401 170.9900
713.089738 96.392 170.9935
718.257080 96.379 170.9928
723.461867 96.362 170.9869
728.704370 96.340 170.9750
733.984862 96.314 170.9566
739.303619 96.283 170.9318
744.660918 96.250 170.9012
750.057038 96.213 170.8661
755.492260 96.172 170.8289
760.966869 96.128 170.7932
766.481148 96.081 170.7640
772.035387 96.029 170.7476
777.629873 95.974 170.7512
783.264900 95.913 170.7819
788.940760 95.849 170.8460
794.657750 95.781 170.9467
800.416168 95.710 171.0824
806.216313 95.637 171.2459
812.058489 95.563 171.4257
817.943000 95.489 171.6084
823.870152 95.414 171.7820
829.840255 95.337 171.9374
835.853619 95.259 172.0692
841.910559 95.180 172.1750
848.011390 95.098 172.2552
854.156430 95.014 172.3120
860.346000 94.930 172.3482
866.580422 94.845 172.3674
872.860020 94.760 172.3730
879.185124 94.677 172.3677
885.556062 94.596 172.3536
891.973166 94.519 172.3322
898.436771 94.447 172.3042
904.947215 94.381 172.2700
911.504835 94.322 172.2293
918.109975 94.271 172.1819
924.762978 94.229 172.1268
931.464192 94.195 172.0632
938.213966 94.171 171.9901
945.012651 94.154 171.9069
951.860602 94.146 171.8140
958.758176 94.144 171.7123
965.705733 94.147 171.6039
972.703635 94.154 171.4913
979.752246 94.165 171.3779
986.851935 94.177 171.2679
994.003071 94.190 171.1667
1001.206027 94.204 171.0808
1008.461179 94.219 171.0177
1015.768904 94.236 170.9855
1023.129584 94.256 170.9918
1030.543603 94.281 171.0430
1038.011347 94.314 171.1422
1045.533205 94.357 171.2880
1053.109569 94.413 171.4747
1060.740836 94.483 171.6918
1068.427401 94.567 171.9260
1076.169666 94.666 172.1632
1083.968035 94.776 172.3900
1091.822915 94.895 172.5954
1099.734713 95.021 172.7718
1107.703844 95.149 172.9149
1115.730723 95.276 173.0236
1123.815768 95.400 173.0991
1131.959400 95.519 173.1444
1140.162045 95.630 173.1632
1148.424129 95.734 173.1597
1156.746083 95.830 173.1380
1165.128342 95.918 173.1020
1173.571343 95.999 173.0550
1182.075524 96.075 173.0001
1190.641331 96.147 172.9399
1199.269209 96.215 172.8767
1207.959608 96.282 172.8120
1216.712981 96.347 172.7468
1225.529785 96.412 172.6818
1234.410479 96.477 172.6171
1243.355526 96.540 172.5529
1252.365393 96.603 172.4893
1261.440549 96.663 172.4265
1270.581467 96.721 172.3647
1279.788624 96.775 172.3038
1289.062500 96.827 172.2438
1298.403578 96.874 172.1845
1307.812346 96.917 172.1259
1317.289293 96.957 172.0673
1326.834914 96.993 172.0082
1336.449707 97.027 171.9479
1346.134173 97.057 171.8854
1355.888816 97.085 171.8201
1365.714145 97.110 171.7516
1375.610673 97.132 171.6795
1385.578915 97.151 171.6032
1395.619391 97.167 171.5221
1405.732624 97.180 171.4359
1415.919142 97.189 171.3449
1426.179476 97.195 171.2505
1436.514160 97.197 171.1550
1446.923734 97.197 171.0618
1457.408740 97.194 170.9745
1467.969724 97.190 170.8967
1478.607238 97.185 170.8317
1489.321836 97.181 170.7820
1500.114076 97.179 170.7495
1510.984521 97.180 170.7351
1521.933737 97.184 170.7393
1532.962297 97.191 170.7616
1544.070773 97.202 170.8008
1555.259747 97.217 170.8544
1566.529800 97.236 170.9196
1577.881521 97.258 170.9924
1589.315501 97.283 171.0694
1600.832336 97.309 171.1471
1612.432627 97.337 171.2227
1624.116978 97.364 171.2944
1635.886000 97.392 171.3616
1647.740304 97.419 171.4244
1659.680509 97.444 171.4847
1671.707238 97.468 171.5453
1683.821118 97.491 171.6099
1696.022780 97.512 171.6819
1708.312860 97.534 171.7641
1720.692000 97.556 171.8577
1733.160843 97.578 171.9632
1745.720041 97.602 172.0801
1758.370248 97.627 172.2076
1771.112124 97.653 172.3449
1783.946332 97.680 172.4917
1796.873543 97.707 172.6482
1809.894429 97.733 172.8147
1823.009670 97.760 172.9911
1836.219950 97.787 173.1759
1849.525956 97.814 173.3663
1862.928384 97.842 173.5590
1876.427931 97.869 173.7509
1890.025301 97.897 173.9393
1903.721204 97.925 174.1225
1917.516352 97.953 174.2989
1931.411466 97.980 174.4677
1945.407270 98.006 174.6289
1959.504493 98.029 174.7841
1973.703870 98.049 174.9357
1988.006142 98.065 175.0871
2002.412054 98.076 175.2418
2016.922357 98.080 175.4031
2031.537808 98.078 175.5735
2046.259169 98.069 175.7545
2061.087206 98.053 175.9467
2076.022694 98.031 176.1489
2091.066410 98.002 176.3593
2106.219139 97.969 176.5746
2121.481671 97.930 176.7913
2136.854802 97.889 177.0057
2152.339333 97.845 177.2146
2167.936071 97.799 177.4155
2183.645829 97.754 177.6072
2199.469427 97.708 177.7893
2215.407689 97.664 177.9631
2231.461446 97.623 178.1307
2247.631536 97.584 178.2946
2263.918800 97.549 178.4575
2280.324089 97.517 178.6211
2296.848258 97.491 178.7858
2313.492167 97.470 178.9507
2330.256685 97.454 179.1133
2347.142685 97.444 179.2697
2364.151049 97.439 179.4153
2381.282662 97.439 179.5447
2398.538418 97.443 179.6533
2415.919216 97.451 179.7374
2433.425962 97.461 179.7952
2451.059570 97.474 179.8267
2468.820958 97.488 179.8343
2486.711052 97.503 179.8217
2504.730786 97.518 179.7935
2522.881098 97.536 179.7544
2541.162934 97.555 179.7082
2559.577248 97.578 179.6575
2578.125000 97.606 179.6035
2596.807157 97.639 179.5456
2615.624692 97.679 179.4822
2634.578586 97.728 179.4111
2653.669829 97.784 179.3297
2672.899414 97.849 179.2362
2692.268345 97.923 179.1296
2711.777632 98.004 179.0107
2731.428290 98.092 178.8815
2751.221345 98.184 178.7452
2771.157829 98.281 178.6064
2791.238781 98.380 178.4697
2811.465248 98.480 178.3394
2831.838284 98.579 178.2193
2852.358952 98.676 178.1125
2873.028321 98.768 178.0216
2893.847468 98.856 177.9487
2914.817480 98.936 177.8958
2935.939449 99.009 177.8645
2957.214476 99.074 177.8566
2978.643672 99.129 177.8739
3000.228152 99.177 177.9176
3021.969041 99.216 177.9881
3043.867475 99.247 178.0845
3065.924593 99.273 178.2044
3088.141547 99.294 178.3433
3110.519493 99.312 178.4954
3133.059600 99.328 178.6528
3155.763041 99.342 178.8069
3178.631001 99.357 178.9487
3201.664672 99.371 179.0700
3224.865254 99.386 179.1647
3248.233957 99.400 179.2289
3271.771999 99.413 179.2611
3295.480608 99.425 179.2623
3319.361019 99.435 179.2348
3343.414477 99.442 179.1821
3367.642236 99.447 179.1080
3392.045560 99.450 179.0167
3416.625721 99.450 178.9121
3441.383999 99.448 178.7983
3466.321686 99.443 178.6790
3491.440082 99.437 178.5579
3516.740496 99.430 178.4388
3542.224247 99.422 178.3257
3567.892664 99.415 178.2227
3593.747085 99.408 178.1342
3619.788858 99.404 178.0648
3646.019340 99.402 178.0191
3672.439900 99.403 178.0012
3699.051913 99.410 178.0144
3725.856768 99.422 178.0607
3752.855862 99.440 178.1407
3780.050603 99.466 178.2531
3807.442408 99.501 178.3955
3835.032705 99.543 178.5645
3862.822933 99.595 178.7559
3890.814540 99.655 178.9655
3919.008986 99.723 179.1894
3947.407741 99.799 179.4240
3976.012284 99.883 179.6658
4004.824108 99.974 179.9110
4033.844715 100.072 -179.8448
4063.075616 100.178 -179.6070
4092.518337 100.290 -179.3818
4122.174412 100.408 -179.1762
4152.045387 100.532 -178.9968
4182.132820 100.661 -178.8501
4212.438278 100.794 -178.7417
4242.963342 100.930 -178.6772
4273.709604 101.070 -178.6621
4304.678665 101.212 -178.7020
4335.872141 101.354 -178.8030
4367.291658 101.496 -178.9705
4398.938854 101.635 -179.2091
4430.815378 101.771 -179.5217
4462.922893 101.901 -179.9093
4495.263072 102.023 179.6293
4527.837601 102.136 179.0966
4560.648179 102.238 178.4962
4593.696515 102.328 177.8328
4626.984334 102.406 177.1114
4660.513370 102.471 176.3373
4694.285371 102.522 175.5165
4728.302098 102.561 174.6547
4762.565324 102.588 173.7571
4797.076835 102.604 172.8283
4831.838432 102.609 171.8720
4866.851925 102.605 170.8909
4902.119140 102.594 169.8862
4937.641916 102.575 168.8585
4973.422105 102.551 167.8072
5009.461572 102.521 166.7312
5045.762195 102.486 165.6290
5082.325868 102.446 164.4994
5119.154496 102.400 163.3414
5156.250000 102.348 162.1552
5193.614313 102.288 160.9419
5231.249383 102.220 159.7040
5269.157173 102.142 158.4453
5307.339658 102.052 157.1718
5345.798829 101.949 155.8911
5384.536691 101.831 154.6127
5423.555263 101.696 153.3480
5462.856580 101.545 152.1097
5502.442691 101.376 150.9111
5542.315659 101.190 149.7659
5582.477563 100.987 148.6877
5622.930497 100.767 147.6898
5663.676569 100.532 146.7847
5704.717904 100.283 145.9847
5746.056642 100.023 145.3014
5787.694937 99.754 144.7455
5829.634960 99.478 144.3271
5871.878898 99.199 144.0558
5914.428953 98.917 143.9413
5957.287343 98.638 143.9929
6000.456303 98.363 144.2198
6043.938083 98.096 144.6303
6087.734950 97.839 145.2296
6131.849187 97.596 146.0185
6176.283094 97.370 146.9914
6221.038987 97.164 148.1342
6266.119200 96.980 149.4240
6311.526083 96.820 150.8293
6357.262002 96.684 152.3119
6403.329344 96.572 153.8303
6449.730508 96.482 155.3436
6496.467914 96.410 156.8145
6543.543998 96.356 158.2125
6590.961215 96.314 159.5151
6638.722037 96.282 160.7084
6686.828954 96.259 161.7861
6735.284473 96.241 162.7483
6784.091120 96.228 163.5991
6833.251441 96.220 164.3446
6882.767998 96.216 164.9912
6932.643372 96.217 165.5441
6982.880164 96.225 166.0064
7033.480992 96.239 166.3788
7084.448495 96.261 166.6595
7135.785329 96.290 166.8442
7187.494171 96.327 166.9270
7239.577717 96.370 166.9004
7292.038681 96.418 166.7562
7344.879799 96.468 166.4860
7398.103826 96.518 166.0815
7451.713536 96.565 165.5352
7505.711724 96.606 164.8395
7560.101205 96.638 163.9879
7614.884815 96.656 162.9742
7670.065409 96.657 161.7924
7725.645865 96.639 160.4371
7781.629080 96.597 158.9026
7838.017972 96.529 157.1844
7894.815481 96.431 155.2787
7952.024569 96.300 153.1843
8009.648217 96.133 150.9033
8067.689429 95.925 148.4431
8126.151233 95.673 145.8195
8185.036674 95.376 143.0588
8244.348824 95.030 140.2029
8304.090774 94.635 137.3152
8364.265639 94.194 134.4928
8424.876556 93.714 131.8911
8485.926684 93.206 129.7845
8547.419207 92.689 128.7452
8609.357330 92.190 130.3210
8671.744282 91.742 140.8930
8734.583316 91.382 -160.9283
8797.877707 91.145 -105.3559
8861.630756 91.052 -94.8958
8925.845785 91.110 -92.6353
8990.526143 91.306 -92.6276
9055.675202 91.615 -93.4488
9121.296357 92.007 -94.6107
9187.393031 92.456 -95.9149
9253.968668 92.936 -97.2778
9321.026740 93.430 -98.6686
9388.570742 93.926 -100.0842
9456.604196 94.412 -101.5356
9525.130648 94.882 -103.0408
9594.153671 95.332 -104.6205
9663.676863 95.756 -106.2940
9733.703850 96.152 -108.0778
9804.238280 96.517 -109.9839
9875.283832 96.850 -112.0190
9946.844210 97.147 -114.1844
10018.923143 97.409 -116.4757
10091.524390 97.633 -118.8835
10164.651736 97.820 -121.3934
10238.308993 97.970 -123.9863
10312.500000 98.081 -126.6393
10387.228626 98.156 -129.3263
10462.498767 98.195 -132.0193
10538.314345 98.201 -134.6899
10614.679315 98.176 -137.3113
10691.597657 98.125 -139.8608
10769.073381 98.051 -142.3216
10847.110526 97.960 -144.6852
10925.713161 97.856 -146.9521
11004.885382 97.743 -149.1330
11084.631318 97.626 -151.2475
11164.955126 97.508 -153.3229
11245.860993 97.388 -155.3914
11327.353138 97.269 -157.4873
11409.435808 97.148 -159.6434
11492.113283 97.022 -161.8884
11575.389873 96.890 -164.2441
11659.269920 96.746 -166.7247
11743.757796 96.588 -169.3354
11828.857906 96.412 -172.0737
11914.574686 96.214 -174.9301
12000.912606 95.992 -177.8901
12087.876166 95.744 179.0646
12175.469900 95.468 175.9542
12263.698373 95.164 172.8006
12352.566187 94.829 169.6264
12442.077974 94.464 166.4552
12532.238400 94.068 163.3113
12623.052165 93.639 160.2196
12714.524005 93.179 157.2050
12806.658687 92.688 154.2917
12899.461015 92.167 151.5009
12992.935827 91.619 148.8495
13087.087996 91.047 146.3465
13181.922430 90.458 143.9902
13277.444074 89.859 141.7663
13373.657907 89.257 139.6459
13470.568945 88.663 137.5861
13568.182241 88.087 135.5314
13666.502883 87.539 133.4175
13765.535996 87.030 131.1757
13865.286744 86.569 128.7377
13965.760328 86.162 126.0400
14066.961984 85.813 123.0270
14168.896989 85.523 119.6526
14271.570658 85.290 115.8811
14374.988342 85.109 111.6870
14479.155433 84.974 107.0555
14584.077362 84.877 101.9825
14689.759598 84.809 96.4752
14796.207652 84.760 90.5514
14903.427072 84.724 84.2392
15011.423448 84.692 77.5748
15120.202410 84.658 70.6011
15229.769630 84.617 63.3649
15340.130819 84.562 55.9158
15451.291730 84.486 48.3060
15563.258160 84.382 40.5906
15676.035944 84.240 32.8298
15789.630962 84.052 25.0903
15904.049137 83.810 17.4451
16019.296433 83.505 9.9711
16135.378859 83.136 2.7433
16252.302465 82.702 -4.1719
16370.073348 82.206 -10.7239
16488.697648 81.655 -16.8824
16608.181548 81.059 -22.6403
16728.531278 80.428 -28.0129
16849.753112 79.776 -33.0361
16971.853368 79.114 -37.7600
17094.838414 78.454 -42.2405
17218.714660 77.804 -46.5276
17343.488565 77.166 -50.6539
17469.166632 76.541 -54.6238
17595.755415 75.924 -58.4058
17723.261512 75.307 -61.9308
17851.691571 74.686 -65.0970
17981.052287 74.056 -67.7816
18111.350404 73.423 -69.8629
18242.592715 72.796 -71.2516
18374.786062 72.193 -71.9313
18507.937336 71.636 -71.9899
18642.053479 71.144 -71.6212
18777.141484 70.734 -71.0770
18913.208391 70.407 -70.5833
19050.261296 70.156 -70.2694
19188.307342 69.968 -70.1476
19327.353727 69.828 -70.1467
19467.407699 69.726 -70.1720
19608.476560 69.653 -70.1588
19750.567664 69.605 -70.0965
19893.688419 69.579 -70.0172
20037.846286 69.567 -69.9641
