* Measurement data measured by REW V5.31.3
* Source: EXCL: Headset (USB-C to 3.5mm Headphone Jack Adapter), MICROPHONE (Master Volume), 0, volume: 0.260
* Format: 256k Log Swept Sine, 1 sweep at -12.0 dBFS with no timing reference
* Dated: Feb 9, 2025 9:40:46 PM
* REW Settings:
*  C-weighting compensation: Off
*  Target level: 75.0 dB
* Note: ; 
* Measurement: HD650 (Worn) R6
* Smoothing: 1/6 octave
* Frequency Step: 96 ppo
* Start Frequency: 20.0 Hz
*
* Freq(Hz) SPL(dB) Phase(degrees)
20.141602 87.080 -26.9000
20.287556 87.096 -27.2048
20.434568 87.115 -27.6112
20.582645 87.133 -28.1052
20.731796 87.149 -28.6714
20.882027 87.158 -29.2940
21.033346 87.160 -29.9577
21.185763 87.153 -30.6488
21.339284 87.137 -31.3554
21.493917 87.114 -32.0678
21.649671 87.083 -32.7789
21.806553 87.048 -33.4836
21.964572 87.010 -34.1784
22.123737 86.972 -34.8616
22.284054 86.935 -35.5321
22.445534 86.901 -36.1893
22.608183 86.873 -36.8324
22.772012 86.849 -37.4602
22.937027 86.833 -38.0712
23.103238 86.825 -38.6632
23.270654 86.825 -39.2342
23.439282 86.834 -39.7822
23.609133 86.852 -40.3061
23.780215 86.882 -40.8058
23.952536 86.923 -41.2825
24.126106 86.976 -41.7391
24.300934 87.041 -42.1798
24.477028 87.117 -42.6099
24.654399 87.204 -43.0352
24.833055 87.300 -43.4620
25.013005 87.404 -43.8956
25.194260 87.513 -44.3408
25.376828 87.625 -44.8010
25.560719 87.739 -45.2784
25.745942 87.851 -45.7740
25.932508 87.961 -46.2879
26.120426 88.068 -46.8200
26.309705 88.169 -47.3696
26.500356 88.266 -47.9363
26.692388 88.356 -48.5196
26.885812 88.441 -49.1191
27.080638 88.519 -49.7337
27.276876 88.592 -50.3619
27.474535 88.659 -51.0007
27.673627 88.722 -51.6461
27.874161 88.782 -52.2928
28.076149 88.841 -52.9347
28.279600 88.903 -53.5650
28.484526 88.970 -54.1776
28.690937 89.048 -54.7677
28.898843 89.138 -55.3322
29.108256 89.246 -55.8707
29.319186 89.372 -56.3852
29.531645 89.517 -56.8800
29.745644 89.682 -57.3610
29.961193 89.862 -57.8347
30.178304 90.055 -58.3072
30.396989 90.255 -58.7832
30.617258 90.457 -59.2659
30.839123 90.655 -59.7564
31.062596 90.842 -60.2543
31.287688 91.014 -60.7578
31.514412 91.167 -61.2651
31.742778 91.296 -61.7743
31.972800 91.399 -62.2845
32.204488 91.474 -62.7953
32.437855 91.521 -63.3074
32.672913 91.538 -63.8217
32.909674 91.527 -64.3396
33.148151 91.489 -64.8619
33.388356 91.426 -65.3891
33.630302 91.340 -65.9213
33.874001 91.236 -66.4583
34.119466 91.118 -66.9995
34.366710 90.989 -67.5445
34.615745 90.855 -68.0929
34.866585 90.719 -68.6446
35.119243 90.588 -69.1995
35.373731 90.464 -69.7575
35.630064 90.353 -70.3185
35.888254 90.257 -70.8824
36.148315 90.179 -71.4492
36.410261 90.121 -72.0190
36.674104 90.086 -72.5918
36.939860 90.073 -73.1680
37.207542 90.084 -73.7476
37.477163 90.117 -74.3305
37.748738 90.172 -74.9161
38.022281 90.248 -75.5032
38.297806 90.345 -76.0902
38.575327 90.462 -76.6751
38.854860 90.596 -77.2557
39.136419 90.749 -77.8302
39.420017 90.918 -78.3972
39.705671 91.103 -78.9559
39.993395 91.303 -79.5061
40.283203 91.516 -80.0482
40.575112 91.741 -80.5833
40.869136 91.977 -81.1124
41.165290 92.222 -81.6372
41.463591 92.475 -82.1590
41.764053 92.733 -82.6794
42.066693 92.996 -83.1991
42.371525 93.261 -83.7187
42.678567 93.526 -84.2379
42.987834 93.789 -84.7555
43.299341 94.048 -85.2702
43.613106 94.300 -85.7802
43.929145 94.544 -86.2840
44.247473 94.777 -86.7807
44.568109 94.998 -87.2700
44.891068 95.205 -87.7526
45.216367 95.397 -88.2292
45.544023 95.573 -88.7008
45.874054 95.731 -89.1677
46.206476 95.873 -89.6299
46.541307 95.998 -90.0862
46.878565 96.106 -90.5357
47.218266 96.197 -90.9773
47.560429 96.274 -91.4108
47.905072 96.336 -91.8372
48.252212 96.384 -92.2588
48.601867 96.420 -92.6788
48.954056 96.445 -93.1013
49.308798 96.460 -93.5302
49.666109 96.467 -93.9690
50.026010 96.467 -94.4204
50.388520 96.462 -94.8856
50.753656 96.454 -95.3647
51.121437 96.446 -95.8567
51.491884 96.438 -96.3597
51.865016 96.434 -96.8709
52.240851 96.434 -97.3876
52.619410 96.439 -97.9069
53.000712 96.449 -98.4261
53.384777 96.464 -98.9434
53.771625 96.483 -99.4575
54.161276 96.506 -99.9679
54.553751 96.532 -100.4745
54.949070 96.558 -100.9774
55.347254 96.584 -101.4768
55.748323 96.609 -101.9724
56.152298 96.631 -102.4640
56.559201 96.651 -102.9513
56.969052 96.669 -103.4345
57.381873 96.683 -103.9143
57.797686 96.694 -104.3921
58.216512 96.701 -104.8702
58.638373 96.706 -105.3515
59.063291 96.708 -105.8391
59.491288 96.707 -106.3355
59.922386 96.702 -106.8423
60.356608 96.695 -107.3596
60.793977 96.686 -107.8858
61.234515 96.674 -108.4188
61.678246 96.661 -108.9557
62.125192 96.648 -109.4944
62.575377 96.634 -110.0332
63.028824 96.622 -110.5711
63.485557 96.610 -111.1075
63.945599 96.601 -111.6422
64.408975 96.593 -112.1751
64.875709 96.588 -112.7058
65.345825 96.586 -113.2339
65.819348 96.586 -113.7589
66.296302 96.590 -114.2801
66.776713 96.595 -114.7972
67.260604 96.604 -115.3103
67.748002 96.615 -115.8198
68.238932 96.629 -116.3264
68.733420 96.645 -116.8311
69.231490 96.664 -117.3345
69.733170 96.686 -117.8373
70.238485 96.711 -118.3401
70.747463 96.737 -118.8433
71.260128 96.766 -119.3472
71.776508 96.796 -119.8521
72.296630 96.827 -120.3580
72.820521 96.859 -120.8649
73.348209 96.891 -121.3726
73.879720 96.924 -121.8807
74.415083 96.957 -122.3890
74.954326 96.989 -122.8967
75.497475 97.021 -123.4034
76.044561 97.051 -123.9082
76.595612 97.080 -124.4107
77.150655 97.107 -124.9103
77.709720 97.131 -125.4068
78.272837 97.153 -125.9004
78.840034 97.171 -126.3912
79.411342 97.185 -126.8798
79.986789 97.196 -127.3665
80.566406 97.202 -127.8516
81.150224 97.205 -128.3349
81.738272 97.205 -128.8164
82.330581 97.202 -129.2959
82.927182 97.197 -129.7735
83.528107 97.192 -130.2489
84.133386 97.189 -130.7223
84.743051 97.189 -131.1936
85.357134 97.196 -131.6626
85.975667 97.213 -132.1292
86.598682 97.242 -132.5930
87.226212 97.288 -133.0539
87.858289 97.354 -133.5116
88.494946 97.442 -133.9657
89.136217 97.553 -134.4163
89.782135 97.688 -134.8632
90.432733 97.846 -135.3065
91.088046 98.025 -135.7463
91.748108 98.220 -136.1830
92.412952 98.427 -136.6169
93.082615 98.641 -137.0485
93.757130 98.856 -137.4783
94.436533 99.067 -137.9065
95.120859 99.270 -138.3330
95.810144 99.460 -138.7577
96.504423 99.634 -139.1802
97.203734 99.792 -139.5997
97.908112 99.932 -140.0159
98.617595 100.054 -140.4282
99.332219 100.160 -140.8366
100.052021 100.251 -141.2412
100.777039 100.330 -141.6425
101.507311 100.398 -142.0410
102.242875 100.458 -142.4370
102.983769 100.511 -142.8309
103.730032 100.559 -143.2231
104.481702 100.602 -143.6137
105.238820 100.640 -144.0026
106.001424 100.672 -144.3896
106.769554 100.697 -144.7746
107.543250 100.714 -145.1571
108.322553 100.720 -145.5372
109.107503 100.715 -145.9147
109.898141 100.697 -146.2900
110.694508 100.665 -146.6632
111.496646 100.620 -147.0347
112.304596 100.561 -147.4050
113.118402 100.491 -147.7743
113.938104 100.410 -148.1429
114.763747 100.321 -148.5106
115.595372 100.227 -148.8774
116.433024 100.129 -149.2429
117.276746 100.030 -149.6069
118.126581 99.931 -149.9688
118.982575 99.835 -150.3284
119.844772 99.741 -150.6853
120.713217 99.651 -151.0397
121.587954 99.563 -151.3915
122.469031 99.478 -151.7412
123.356492 99.393 -152.0894
124.250384 99.309 -152.4364
125.150753 99.222 -152.7830
126.057647 99.132 -153.1296
126.971113 99.038 -153.4765
127.891198 98.938 -153.8239
128.817950 98.831 -154.1716
129.751418 98.718 -154.5195
130.691651 98.599 -154.8669
131.638696 98.475 -155.2136
132.592604 98.346 -155.5592
133.553425 98.216 -155.9034
134.521208 98.087 -156.2462
135.496004 97.962 -156.5876
136.477864 97.845 -156.9274
137.466839 97.738 -157.2658
138.462981 97.645 -157.6027
139.466340 97.569 -157.9382
140.476971 97.511 -158.2721
141.494925 97.472 -158.6045
142.520256 97.450 -158.9353
143.553016 97.445 -159.2646
144.593260 97.453 -159.5927
145.641043 97.470 -159.9198
146.696418 97.493 -160.2461
147.759441 97.518 -160.5716
148.830166 97.540 -160.8963
149.908651 97.558 -161.2199
150.994951 97.569 -161.5423
152.089123 97.573 -161.8632
153.191223 97.569 -162.1825
154.301310 97.558 -162.5002
155.419441 97.542 -162.8166
156.545674 97.522 -163.1318
157.680069 97.500 -163.4462
158.822683 97.476 -163.7598
159.973578 97.454 -164.0725
161.132813 97.434 -164.3841
162.300447 97.415 -164.6944
163.476543 97.400 -165.0029
164.661162 97.388 -165.3096
165.854364 97.380 -165.6142
167.056213 97.375 -165.9167
168.266772 97.374 -166.2171
169.486102 97.377 -166.5156
170.714268 97.384 -166.8122
171.951334 97.396 -167.1071
173.197364 97.412 -167.4002
174.452424 97.432 -167.6917
175.716578 97.456 -167.9815
176.989893 97.483 -168.2697
178.272434 97.513 -168.5564
179.564270 97.544 -168.8417
180.865467 97.576 -169.1256
182.176092 97.607 -169.4083
183.496216 97.636 -169.6897
184.825905 97.662 -169.9697
186.165229 97.685 -170.2480
187.514259 97.705 -170.5245
188.873065 97.722 -170.7987
190.241717 97.736 -171.0703
191.620287 97.748 -171.3392
193.008847 97.758 -171.6051
194.407468 97.767 -171.8680
195.816225 97.776 -172.1282
197.235190 97.784 -172.3858
198.664438 97.792 -172.6413
200.104042 97.799 -172.8949
201.554078 97.804 -173.1469
203.014622 97.808 -173.3975
204.485750 97.809 -173.6469
205.967538 97.808 -173.8951
207.460064 97.803 -174.1419
208.963405 97.795 -174.3871
210.477640 97.784 -174.6306
212.002848 97.769 -174.8722
213.539108 97.752 -175.1119
215.086500 97.732 -175.3498
216.645105 97.709 -175.5861
218.215005 97.685 -175.8211
219.796281 97.658 -176.0552
221.389015 97.629 -176.2887
222.993292 97.597 -176.5217
224.609193 97.562 -176.7542
226.236804 97.523 -176.9860
227.876209 97.479 -177.2165
229.527494 97.429 -177.4454
231.190745 97.374 -177.6719
232.866048 97.314 -177.8958
234.553491 97.248 -178.1167
236.253163 97.177 -178.3344
237.965150 97.102 -178.5486
239.689544 97.023 -178.7592
241.426433 96.942 -178.9659
243.175909 96.860 -179.1686
244.938062 96.777 -179.3672
246.712984 96.695 -179.5619
248.500768 96.614 -179.7524
250.301507 96.536 -179.9386
252.115295 96.461 179.8797
253.942226 96.389 179.7027
255.782396 96.321 179.5306
257.635901 96.259 179.3635
259.502837 96.202 179.2014
261.383301 96.151 179.0446
263.277392 96.106 178.8931
265.185209 96.067 178.7470
267.106850 96.035 178.6068
269.042417 96.009 178.4725
270.992009 95.990 178.3448
272.955729 95.976 178.2239
274.933678 95.968 178.1100
276.925961 95.965 178.0032
278.932681 95.966 177.9031
280.953942 95.971 177.8089
282.989850 95.979 177.7193
285.040511 95.992 177.6327
287.106032 96.008 177.5472
289.186521 96.030 177.4610
291.282086 96.057 177.3725
293.392836 96.090 177.2803
295.518881 96.129 177.1833
297.660333 96.175 177.0811
299.817302 96.226 176.9733
301.989902 96.283 176.8602
304.178245 96.343 176.7421
306.382446 96.405 176.6195
308.602620 96.467 176.4932
310.838882 96.527 176.3638
313.091348 96.583 176.2323
315.360137 96.633 176.0994
317.645367 96.677 175.9658
319.947156 96.713 175.8322
322.265625 96.741 175.6989
324.600895 96.758 175.5665
326.953086 96.766 175.4352
329.322323 96.763 175.3052
331.708729 96.749 175.1769
334.112427 96.725 175.0503
336.533543 96.690 174.9255
338.972204 96.645 174.8027
341.428536 96.590 174.6819
343.902668 96.527 174.5633
346.394729 96.456 174.4467
348.904848 96.380 174.3320
351.433156 96.299 174.2191
353.979786 96.217 174.1080
356.544869 96.136 173.9984
359.128540 96.058 173.8904
361.730934 95.986 173.7841
364.352185 95.924 173.6795
366.992431 95.874 173.5769
369.651810 95.838 173.4766
372.330459 95.819 173.3787
375.028519 95.817 173.2833
377.746130 95.834 173.1905
380.483434 95.867 173.1001
383.240574 95.916 173.0121
386.017693 95.979 172.9262
388.814937 96.053 172.8423
391.632450 96.136 172.7603
394.470380 96.225 172.6798
397.328875 96.317 172.6008
400.208084 96.410 172.5231
403.108157 96.502 172.4465
406.029245 96.592 172.3709
408.971500 96.679 172.2962
411.935076 96.763 172.2223
414.920127 96.844 172.1490
417.926810 96.922 172.0765
420.955280 96.998 172.0046
424.005695 97.074 171.9332
427.078215 97.148 171.8623
430.173000 97.223 171.7919
433.290211 97.298 171.7219
436.430010 97.374 171.6523
439.592562 97.449 171.5833
442.778031 97.522 171.5151
445.986583 97.593 171.4476
449.218386 97.660 171.3811
452.473607 97.722 171.3156
455.752418 97.776 171.2512
459.054987 97.821 171.1879
462.381489 97.857 171.1257
465.732096 97.882 171.0647
469.106983 97.897 171.0051
472.506325 97.902 170.9468
475.930301 97.897 170.8900
479.379088 97.882 170.8345
482.852867 97.860 170.7803
486.351817 97.831 170.7271
489.876123 97.795 170.6750
493.425968 97.755 170.6240
497.001536 97.711 170.5740
500.603014 97.663 170.5251
504.230589 97.611 170.4777
507.884452 97.557 170.4319
511.564792 97.499 170.3880
515.271802 97.439 170.3462
519.005673 97.376 170.3067
522.766602 97.313 170.2697
526.554785 97.249 170.2354
530.370418 97.186 170.2039
534.213700 97.128 170.1748
538.084833 97.074 170.1479
541.984018 97.027 170.1226
545.911457 96.990 170.0984
549.867357 96.961 170.0748
553.851922 96.942 170.0512
557.865362 96.932 170.0275
561.907884 96.930 170.0036
565.979700 96.933 169.9796
570.081022 96.940 169.9557
574.212064 96.949 169.9322
578.373042 96.958 169.9090
582.564171 96.964 169.8862
586.785671 96.967 169.8640
591.037762 96.964 169.8425
595.320665 96.955 169.8218
599.634604 96.940 169.8021
603.979804 96.917 169.7835
608.356491 96.887 169.7664
612.764893 96.851 169.7509
617.205240 96.808 169.7375
621.677763 96.762 169.7261
626.182696 96.712 169.7168
630.720274 96.660 169.7095
635.290733 96.609 169.7040
639.894312 96.560 169.7001
644.531250 96.516 169.6974
649.201789 96.477 169.6958
653.906173 96.445 169.6950
658.644647 96.420 169.6949
663.417457 96.403 169.6953
668.224854 96.394 169.6961
673.067086 96.390 169.6971
677.944408 96.391 169.6982
682.857073 96.394 169.6993
687.805336 96.400 169.7001
692.789457 96.405 169.7006
697.809695 96.408 169.7003
702.866312 96.409 169.6988
707.959571 96.407 169.6957
713.089738 96.400 169.6909
718.257080 96.390 169.6840
723.461867 96.374 169.6751
728.704370 96.355 169.6642
733.984862 96.332 169.6513
739.303619 96.305 169.6365
744.660918 96.277 169.6200
750.057038 96.246 169.6022
755.492260 96.214 169.5836
760.966869 96.181 169.5648
766.481148 96.147 169.5463
772.035387 96.112 169.5285
777.629873 96.075 169.5114
783.264900 96.036 169.4950
788.940760 95.994 169.4788
794.657750 95.948 169.4623
800.416168 95.898 169.4448
806.216313 95.842 169.4255
812.058489 95.781 169.4036
817.943000 95.714 169.3784
823.870152 95.641 169.3492
829.840255 95.562 169.3151
835.853619 95.478 169.2752
841.910559 95.390 169.2289
848.011390 95.298 169.1754
854.156430 95.205 169.1142
860.346000 95.109 169.0448
866.580422 95.013 168.9668
872.860020 94.918 168.8803
879.185124 94.824 168.7855
885.556062 94.733 168.6826
891.973166 94.644 168.5725
898.436771 94.560 168.4557
904.947215 94.480 168.3333
911.504835 94.406 168.2062
918.109975 94.338 168.0761
924.762978 94.276 167.9453
931.464192 94.221 167.8169
938.213966 94.172 167.6951
945.012651 94.130 167.5851
951.860602 94.094 167.4930
958.758176 94.064 167.4252
965.705733 94.040 167.3879
972.703635 94.022 167.3865
979.752246 94.011 167.4244
986.851935 94.007 167.5019
994.003071 94.013 167.6157
1001.206027 94.027 167.7589
1008.461179 94.052 167.9220
1015.768904 94.088 168.0945
1023.129584 94.134 168.2667
1030.543603 94.190 168.4310
1038.011347 94.257 168.5827
1045.533205 94.334 168.7198
1053.109569 94.420 168.8427
1060.740836 94.515 168.9528
1068.427401 94.618 169.0526
1076.169666 94.730 169.1437
1083.968035 94.848 169.2270
1091.822915 94.971 169.3016
1099.734713 95.098 169.3656
1107.703844 95.227 169.4160
1115.730723 95.356 169.4491
1123.815768 95.482 169.4620
1131.959400 95.603 169.4524
1140.162045 95.719 169.4193
1148.424129 95.828 169.3629
1156.746083 95.929 169.2846
1165.128342 96.024 169.1869
1173.571343 96.111 169.0725
1182.075524 96.193 168.9443
1190.641331 96.270 168.8050
1199.269209 96.344 168.6567
1207.959608 96.416 168.5009
1216.712981 96.486 168.3387
1225.529785 96.556 168.1708
1234.410479 96.624 167.9976
1243.355526 96.690 167.8194
1252.365393 96.754 167.6368
1261.440549 96.815 167.4506
1270.581467 96.872 167.2618
1279.788624 96.924 167.0718
1289.062500 96.972 166.8819
1298.403578 97.014 166.6937
1307.812346 97.051 166.5085
1317.289293 97.083 166.3271
1326.834914 97.111 166.1502
1336.449707 97.134 165.9785
1346.134173 97.154 165.8121
1355.888816 97.170 165.6512
1365.714145 97.183 165.4959
1375.610673 97.192 165.3456
1385.578915 97.199 165.1998
1395.619391 97.202 165.0579
1405.732624 97.203 164.9194
1415.919142 97.200 164.7845
1426.179476 97.195 164.6535
1436.514160 97.187 164.5275
1446.923734 97.177 164.4077
1457.408740 97.166 164.2960
1467.969724 97.154 164.1942
1478.607238 97.144 164.1040
1489.321836 97.134 164.0268
1500.114076 97.127 163.9632
1510.984521 97.123 163.9136
1521.933737 97.123 163.8777
1532.962297 97.126 163.8544
1544.070773 97.133 163.8423
1555.259747 97.143 163.8398
1566.529800 97.157 163.8448
1577.881521 97.172 163.8559
1589.315501 97.189 163.8717
1600.832336 97.208 163.8915
1612.432627 97.226 163.9149
1624.116978 97.244 163.9420
1635.886000 97.262 163.9736
1647.740304 97.279 164.0110
1659.680509 97.296 164.0559
1671.707238 97.313 164.1099
1683.821118 97.329 164.1738
1696.022780 97.348 164.2473
1708.312860 97.367 164.3289
1720.692000 97.389 164.4164
1733.160843 97.412 164.5078
1745.720041 97.438 164.6010
1758.370248 97.465 164.6949
1771.112124 97.494 164.7894
1783.946332 97.523 164.8845
1796.873543 97.553 164.9802
1809.894429 97.582 165.0760
1823.009670 97.611 165.1707
1836.219950 97.638 165.2625
1849.525956 97.665 165.3498
1862.928384 97.690 165.4315
1876.427931 97.714 165.5072
1890.025301 97.736 165.5775
1903.721204 97.755 165.6443
1917.516352 97.773 165.7103
1931.411466 97.788 165.7786
1945.407270 97.801 165.8523
1959.504493 97.812 165.9341
1973.703870 97.820 166.0254
1988.006142 97.825 166.1257
2002.412054 97.827 166.2336
2016.922357 97.824 166.3464
2031.537808 97.816 166.4617
2046.259169 97.802 166.5777
2061.087206 97.781 166.6935
2076.022694 97.752 166.8089
2091.066410 97.717 166.9240
2106.219139 97.674 167.0394
2121.481671 97.625 167.1554
2136.854802 97.571 167.2723
2152.339333 97.513 167.3901
2167.936071 97.452 167.5085
2183.645829 97.390 167.6273
2199.469427 97.328 167.7455
2215.407689 97.268 167.8625
2231.461446 97.210 167.9782
2247.631536 97.155 168.0922
2263.918800 97.105 168.2037
2280.324089 97.059 168.3118
2296.848258 97.018 168.4146
2313.492167 96.982 168.5103
2330.256685 96.949 168.5974
2347.142685 96.920 168.6758
2364.151049 96.894 168.7460
2381.282662 96.871 168.8094
2398.538418 96.849 168.8672
2415.919216 96.829 168.9197
2433.425962 96.812 168.9671
2451.059570 96.797 169.0090
2468.820958 96.783 169.0456
2486.711052 96.772 169.0769
2504.730786 96.764 169.1036
2522.881098 96.759 169.1263
2541.162934 96.758 169.1461
2559.577248 96.762 169.1640
2578.125000 96.770 169.1805
2596.807157 96.786 169.1958
2615.624692 96.808 169.2094
2634.578586 96.840 169.2211
2653.669829 96.879 169.2313
2672.899414 96.929 169.2409
2692.268345 96.988 169.2512
2711.777632 97.056 169.2638
2731.428290 97.134 169.2803
2751.221345 97.221 169.3024
2771.157829 97.315 169.3314
2791.238781 97.415 169.3687
2811.465248 97.521 169.4153
2831.838284 97.630 169.4714
2852.358952 97.741 169.5366
2873.028321 97.853 169.6088
2893.847468 97.964 169.6844
2914.817480 98.072 169.7585
2935.939449 98.177 169.8257
2957.214476 98.277 169.8806
2978.643672 98.370 169.9180
3000.228152 98.456 169.9335
3021.969041 98.533 169.9239
3043.867475 98.602 169.8871
3065.924593 98.661 169.8228
3088.141547 98.711 169.7321
3110.519493 98.752 169.6176
3133.059600 98.783 169.4827
3155.763041 98.806 169.3309
3178.631001 98.822 169.1653
3201.664672 98.831 168.9881
3224.865254 98.834 168.8015
3248.233957 98.833 168.6069
3271.771999 98.827 168.4055
3295.480608 98.817 168.1982
3319.361019 98.804 167.9858
3343.414477 98.787 167.7692
3367.642236 98.767 167.5499
3392.045560 98.744 167.3304
3416.625721 98.719 167.1138
3441.383999 98.690 166.9041
3466.321686 98.660 166.7050
3491.440082 98.629 166.5203
3516.740496 98.597 166.3533
3542.224247 98.567 166.2064
3567.892664 98.538 166.0816
3593.747085 98.513 165.9801
3619.788858 98.492 165.9020
3646.019340 98.477 165.8469
3672.439900 98.468 165.8133
3699.051913 98.466 165.7993
3725.856768 98.472 165.8026
3752.855862 98.486 165.8208
3780.050603 98.508 165.8510
3807.442408 98.538 165.8907
3835.032705 98.575 165.9375
3862.822933 98.619 165.9896
3890.814540 98.670 166.0453
3919.008986 98.728 166.1033
3947.407741 98.791 166.1615
3976.012284 98.859 166.2176
4004.824108 98.933 166.2687
4033.844715 99.012 166.3117
4063.075616 99.094 166.3428
4092.518337 99.181 166.3577
4122.174412 99.271 166.3513
4152.045387 99.364 166.3184
4182.132820 99.459 166.2538
4212.438278 99.555 166.1526
4242.963342 99.652 166.0102
4273.709604 99.748 165.8232
4304.678665 99.844 165.5886
4335.872141 99.937 165.3047
4367.291658 100.026 164.9701
4398.938854 100.111 164.5841
4430.815378 100.189 164.1464
4462.922893 100.261 163.6576
4495.263072 100.324 163.1187
4527.837601 100.378 162.5314
4560.648179 100.422 161.8980
4593.696515 100.454 161.2211
4626.984334 100.475 160.5034
4660.513370 100.484 159.7475
4694.285371 100.480 158.9559
4728.302098 100.466 158.1310
4762.565324 100.440 157.2752
4797.076835 100.403 156.3905
4831.838432 100.356 155.4788
4866.851925 100.300 154.5416
4902.119140 100.235 153.5803
4937.641916 100.162 152.5958
4973.422105 100.082 151.5889
5009.461572 99.995 150.5596
5045.762195 99.901 149.5078
5082.325868 99.801 148.4333
5119.154496 99.693 147.3364
5156.250000 99.578 146.2174
5193.614313 99.455 145.0778
5231.249383 99.321 143.9198
5269.157173 99.177 142.7469
5307.339658 99.020 141.5642
5345.798829 98.850 140.3781
5384.536691 98.663 139.1968
5423.555263 98.458 138.0305
5462.856580 98.235 136.8914
5502.442691 97.991 135.7941
5542.315659 97.725 134.7558
5582.477563 97.436 133.7965
5622.930497 97.124 132.9385
5663.676569 96.789 132.2071
5704.717904 96.432 131.6299
5746.056642 96.054 131.2374
5787.694937 95.657 131.0624
5829.634960 95.244 131.1403
5871.878898 94.820 131.5084
5914.428953 94.390 132.2044
5957.287343 93.961 133.2645
6000.456303 93.539 134.7191
6043.938083 93.136 136.5868
6087.734950 92.760 138.8676
6131.849187 92.422 141.5364
6176.283094 92.131 144.5386
6221.038987 91.893 147.7920
6266.119200 91.712 151.1947
6311.526083 91.588 154.6379
6357.262002 91.516 158.0200
6403.329344 91.492 161.2580
6449.730508 91.506 164.2929
6496.467914 91.551 167.0898
6543.543998 91.620 169.6341
6590.961215 91.706 171.9256
6638.722037 91.804 173.9736
6686.828954 91.910 175.7927
6735.284473 92.020 177.4001
6784.091120 92.132 178.8145
6833.251441 92.245 -179.9456
6882.767998 92.357 -178.8612
6932.643372 92.469 -177.9144
6982.880164 92.578 -177.0886
7033.480992 92.687 -176.3690
7084.448495 92.793 -175.7424
7135.785329 92.897 -175.1971
7187.494171 92.998 -174.7224
7239.577717 93.095 -174.3083
7292.038681 93.188 -173.9452
7344.879799 93.276 -173.6234
7398.103826 93.357 -173.3335
7451.713536 93.430 -173.0670
7505.711724 93.495 -172.8163
7560.101205 93.551 -172.5758
7614.884815 93.597 -172.3425
7670.065409 93.633 -172.1158
7725.645865 93.657 -171.8979
7781.629080 93.670 -171.6936
7838.017972 93.669 -171.5091
7894.815481 93.654 -171.3508
7952.024569 93.624 -171.2234
8009.648217 93.575 -171.1281
8067.689429 93.508 -171.0605
8126.151233 93.418 -171.0083
8185.036674 93.304 -170.9492
8244.348824 93.164 -170.8493
8304.090774 92.998 -170.6609
8364.265639 92.805 -170.3222
8424.876556 92.587 -169.7574
8485.926684 92.350 -168.8810
8547.419207 92.104 -167.6056
8609.357330 91.862 -165.8556
8671.744282 91.642 -163.5871
8734.583316 91.465 -160.8078
8797.877707 91.353 -157.5936
8861.630756 91.321 -154.0888
8925.845785 91.383 -150.4854
8990.526143 91.538 -146.9878
9055.675202 91.780 -143.7758
9121.296357 92.098 -140.9813
9187.393031 92.473 -138.6844
9253.968668 92.889 -136.9212
9321.026740 93.330 -135.6979
9388.570742 93.780 -135.0030
9456.604196 94.226 -134.8155
9525.130648 94.656 -135.1094
9594.153671 95.062 -135.8556
9663.676863 95.432 -137.0215
9733.703850 95.761 -138.5703
9804.238280 96.039 -140.4602
9875.283832 96.263 -142.6440
9946.844210 96.427 -145.0688
10018.923143 96.528 -147.6776
10091.524390 96.565 -150.4098
10164.651736 96.538 -153.2042
10238.308993 96.450 -156.0016
10312.500000 96.306 -158.7477
10387.228626 96.110 -161.3954
10462.498767 95.869 -163.9070
10538.314345 95.592 -166.2559
10614.679315 95.287 -168.4269
10691.597657 94.961 -170.4169
10769.073381 94.624 -172.2341
10847.110526 94.282 -173.8977
10925.713161 93.941 -175.4360
11004.885382 93.605 -176.8843
11084.631318 93.276 -178.2820
11164.955126 92.954 -179.6695
11245.860993 92.638 178.9154
11327.353138 92.323 177.4407
11409.435808 92.004 175.8836
11492.113283 91.675 174.2321
11575.389873 91.330 172.4868
11659.269920 90.961 170.6615
11743.757796 90.564 168.7822
11828.857906 90.132 166.8857
11914.574686 89.662 165.0177
12000.912606 89.152 163.2303
12087.876166 88.601 161.5794
12175.469900 88.011 160.1221
12263.698373 87.383 158.9152
12352.566187 86.724 158.0135
12442.077974 86.038 157.4688
12532.238400 85.335 157.3275
12623.052165 84.627 157.6268
12714.524005 83.929 158.3873
12806.658687 83.264 159.6005
12899.461015 82.658 161.2112
12992.935827 82.146 163.1004
13087.087996 81.762 165.0765
13181.922430 81.538 166.8866
13277.444074 81.490 168.2492
13373.657907 81.618 168.9002
13470.568945 81.899 168.6303
13568.182241 82.299 167.3015
13666.502883 82.779 164.8427
13765.535996 83.303 161.2338
13865.286744 83.840 156.4886
13965.760328 84.365 150.6425
14066.961984 84.858 143.7466
14168.896989 85.305 135.8677
14271.570658 85.693 127.0921
14374.988342 86.013 117.5306
14479.155433 86.256 107.3229
14584.077362 86.417 96.6376
14689.759598 86.494 85.6649
14796.207652 86.485 74.6041
14903.427072 86.394 63.6457
15011.423448 86.227 52.9549
15120.202410 85.992 42.6605
15229.769630 85.699 32.8484
15340.130819 85.361 23.5621
15451.291730 84.993 14.8081
15563.258160 84.610 6.5613
15676.035944 84.226 -1.2266
15789.630962 83.854 -8.6185
15904.049137 83.504 -15.6853
16019.296433 83.183 -22.4978
16135.378859 82.891 -29.1200
16252.302465 82.625 -35.6035
16370.073348 82.377 -41.9822
16488.697648 82.139 -48.2678
16608.181548 81.900 -54.4452
16728.531278 81.653 -60.4662
16849.753112 81.389 -66.2413
16971.853368 81.107 -71.6256
17094.838414 80.807 -76.3986
17218.714660 80.495 -80.2360
17343.488565 80.180 -82.6847
17469.166632 79.876 -83.1801
17595.755415 79.599 -81.2221
17723.261512 79.365 -76.8741
17851.691571 79.185 -71.3599
17981.052287 79.063 -66.7374
18111.350404 78.995 -64.5225
18242.592715 78.968 -65.0256
18374.786062 78.964 -67.8311
18507.937336 78.963 -72.3602
18642.053479 78.945 -78.1025
18777.141484 78.895 -84.6467
18913.208391 78.802 -91.6508
19050.261296 78.664 -98.8106
19188.307342 78.485 -105.8417
19327.353727 78.280 -112.4756
19467.407699 78.067 -118.4637
19608.476560 77.867 -123.5809
19750.567664 77.700 -127.6271
19893.688419 77.582 -130.4332
20037.846286 77.520 -131.8714
