* Measurement data measured by REW V5.31.3
* Source: EXCL: Headset (USB-C to 3.5mm Headphone Jack Adapter), MICROPHONE (Master Volume), 0, volume: 0.260
* Format: 256k Log Swept Sine, 1 sweep at -12.0 dBFS with no timing reference
* Dated: Feb 9, 2025 9:38:38 PM
* REW Settings:
*  C-weighting compensation: Off
*  Target level: 75.0 dB
* Note: ; 
* Measurement: HD650 (Worn) R2
* Smoothing: 1/6 octave
* Frequency Step: 96 ppo
* Start Frequency: 20.0 Hz
*
* Freq(Hz) SPL(dB) Phase(degrees)
20.141602 86.605 -26.6308
20.287556 86.618 -26.8466
20.434568 86.632 -27.1330
20.582645 86.646 -27.4793
20.731796 86.656 -27.8742
20.882027 86.660 -28.3073
21.033346 86.656 -28.7700
21.185763 86.643 -29.2558
21.339284 86.622 -29.7607
21.493917 86.592 -30.2824
21.649671 86.556 -30.8203
21.806553 86.515 -31.3743
21.964572 86.471 -31.9448
22.123737 86.425 -32.5317
22.284054 86.380 -33.1337
22.445534 86.337 -33.7487
22.608183 86.297 -34.3730
22.772012 86.262 -35.0021
22.937027 86.232 -35.6307
23.103238 86.209 -36.2534
23.270654 86.194 -36.8648
23.439282 86.187 -37.4607
23.609133 86.189 -38.0380
23.780215 86.201 -38.5950
23.952536 86.225 -39.1320
24.126106 86.260 -39.6504
24.300934 86.307 -40.1534
24.477028 86.365 -40.6450
24.654399 86.435 -41.1298
24.833055 86.514 -41.6129
25.013005 86.603 -42.0990
25.194260 86.700 -42.5925
25.376828 86.803 -43.0973
25.560719 86.910 -43.6162
25.745942 87.020 -44.1514
25.932508 87.131 -44.7038
26.120426 87.241 -45.2731
26.309705 87.348 -45.8581
26.500356 87.452 -46.4561
26.692388 87.551 -47.0631
26.885812 87.643 -47.6743
27.080638 87.728 -48.2841
27.276876 87.807 -48.8867
27.474535 87.879 -49.4766
27.673627 87.947 -50.0495
27.874161 88.011 -50.6028
28.076149 88.076 -51.1360
28.279600 88.143 -51.6512
28.484526 88.217 -52.1528
28.690937 88.301 -52.6473
28.898843 88.399 -53.1425
29.108256 88.511 -53.6461
29.319186 88.640 -54.1655
29.531645 88.786 -54.7057
29.745644 88.947 -55.2697
29.961193 89.120 -55.8575
30.178304 89.302 -56.4666
30.396989 89.489 -57.0922
30.617258 89.676 -57.7285
30.839123 89.859 -58.3688
31.062596 90.032 -59.0072
31.287688 90.192 -59.6385
31.514412 90.334 -60.2590
31.742778 90.455 -60.8663
31.972800 90.551 -61.4596
32.204488 90.621 -62.0391
32.437855 90.662 -62.6056
32.672913 90.675 -63.1610
32.909674 90.659 -63.7071
33.148151 90.616 -64.2464
33.388356 90.548 -64.7815
33.630302 90.458 -65.3149
33.874001 90.349 -65.8488
34.119466 90.226 -66.3850
34.366710 90.092 -66.9243
34.615745 89.953 -67.4663
34.866585 89.812 -68.0096
35.119243 89.676 -68.5518
35.373731 89.548 -69.0904
35.630064 89.434 -69.6225
35.888254 89.336 -70.1464
36.148315 89.259 -70.6611
36.410261 89.204 -71.1672
36.674104 89.174 -71.6663
36.939860 89.169 -72.1607
37.207542 89.188 -72.6534
37.477163 89.232 -73.1472
37.748738 89.298 -73.6447
38.022281 89.385 -74.1477
38.297806 89.492 -74.6580
38.575327 89.617 -75.1764
38.854860 89.759 -75.7033
39.136419 89.918 -76.2389
39.420017 90.093 -76.7826
39.705671 90.282 -77.3332
39.993395 90.485 -77.8891
40.283203 90.701 -78.4482
40.575112 90.930 -79.0082
40.869136 91.169 -79.5670
41.165290 91.418 -80.1230
41.463591 91.674 -80.6752
41.764053 91.936 -81.2230
42.066693 92.202 -81.7663
42.371525 92.470 -82.3050
42.678567 92.737 -82.8386
42.987834 93.001 -83.3662
43.299341 93.261 -83.8862
43.613106 93.514 -84.3966
43.929145 93.759 -84.8953
44.247473 93.994 -85.3803
44.568109 94.217 -85.8503
44.891068 94.428 -86.3048
45.216367 94.623 -86.7448
45.544023 94.803 -87.1722
45.874054 94.966 -87.5904
46.206476 95.113 -88.0035
46.541307 95.242 -88.4156
46.878565 95.353 -88.8309
47.218266 95.448 -89.2525
47.560429 95.526 -89.6821
47.905072 95.590 -90.1206
48.252212 95.640 -90.5679
48.601867 95.678 -91.0235
48.954056 95.706 -91.4865
49.308798 95.725 -91.9563
49.666109 95.736 -92.4321
50.026010 95.743 -92.9134
50.388520 95.745 -93.3994
50.753656 95.744 -93.8898
51.121437 95.743 -94.3842
51.491884 95.742 -94.8827
51.865016 95.742 -95.3857
52.240851 95.744 -95.8931
52.619410 95.750 -96.4051
53.000712 95.759 -96.9213
53.384777 95.771 -97.4410
53.771625 95.786 -97.9639
54.161276 95.803 -98.4892
54.553751 95.822 -99.0164
54.949070 95.842 -99.5446
55.347254 95.862 -100.0724
55.748323 95.880 -100.5982
56.152298 95.897 -101.1200
56.559201 95.911 -101.6363
56.969052 95.922 -102.1459
57.381873 95.930 -102.6488
57.797686 95.935 -103.1458
58.216512 95.937 -103.6384
58.638373 95.936 -104.1293
59.063291 95.933 -104.6212
59.491288 95.929 -105.1170
59.922386 95.924 -105.6190
60.356608 95.917 -106.1283
60.793977 95.911 -106.6445
61.234515 95.903 -107.1661
61.678246 95.896 -107.6909
62.125192 95.888 -108.2163
62.575377 95.880 -108.7407
63.028824 95.873 -109.2627
63.485557 95.867 -109.7819
63.945599 95.862 -110.2980
64.408975 95.858 -110.8109
64.875709 95.856 -111.3205
65.345825 95.856 -111.8266
65.819348 95.859 -112.3293
66.296302 95.863 -112.8290
66.776713 95.870 -113.3261
67.260604 95.879 -113.8214
67.748002 95.891 -114.3157
68.238932 95.906 -114.8097
68.733420 95.922 -115.3039
69.231490 95.941 -115.7985
69.733170 95.961 -116.2937
70.238485 95.983 -116.7894
70.747463 96.007 -117.2855
71.260128 96.032 -117.7820
71.776508 96.058 -118.2788
72.296630 96.085 -118.7757
72.820521 96.113 -119.2725
73.348209 96.142 -119.7690
73.879720 96.172 -120.2647
74.415083 96.202 -120.7595
74.954326 96.233 -121.2527
75.497475 96.264 -121.7439
76.044561 96.294 -122.2321
76.595612 96.324 -122.7170
77.150655 96.353 -123.1980
77.709720 96.380 -123.6750
78.272837 96.404 -124.1483
78.840034 96.425 -124.6185
79.411342 96.442 -125.0867
79.986789 96.456 -125.5539
80.566406 96.465 -126.0210
81.150224 96.470 -126.4887
81.738272 96.471 -126.9570
82.330581 96.468 -127.4259
82.927182 96.464 -127.8948
83.528107 96.458 -128.3630
84.133386 96.454 -128.8295
84.743051 96.453 -129.2932
85.357134 96.459 -129.7529
85.975667 96.474 -130.2076
86.598682 96.503 -130.6566
87.226212 96.548 -131.0994
87.858289 96.614 -131.5358
88.494946 96.702 -131.9658
89.136217 96.813 -132.3899
89.782135 96.950 -132.8083
90.432733 97.109 -133.2218
91.088046 97.289 -133.6312
91.748108 97.486 -134.0372
92.412952 97.697 -134.4410
93.082615 97.914 -134.8430
93.757130 98.134 -135.2439
94.436533 98.350 -135.6435
95.120859 98.558 -136.0418
95.810144 98.753 -136.4388
96.504423 98.934 -136.8347
97.203734 99.097 -137.2299
97.908112 99.242 -137.6248
98.617595 99.370 -138.0198
99.332219 99.481 -138.4150
100.052021 99.576 -138.8103
100.777039 99.659 -139.2054
101.507311 99.730 -139.5998
102.242875 99.793 -139.9934
102.983769 99.849 -140.3862
103.730032 99.899 -140.7784
104.481702 99.944 -141.1703
105.238820 99.984 -141.5619
106.001424 100.018 -141.9530
106.769554 100.044 -142.3434
107.543250 100.062 -142.7321
108.322553 100.071 -143.1185
109.107503 100.067 -143.5017
109.898141 100.051 -143.8813
110.694508 100.022 -144.2568
111.496646 99.979 -144.6282
112.304596 99.923 -144.9955
113.118402 99.855 -145.3592
113.938104 99.777 -145.7197
114.763747 99.691 -146.0780
115.595372 99.599 -146.4349
116.433024 99.504 -146.7911
117.276746 99.408 -147.1473
118.126581 99.313 -147.5040
118.982575 99.220 -147.8613
119.844772 99.129 -148.2195
120.713217 99.042 -148.5785
121.587954 98.958 -148.9382
122.469031 98.875 -149.2983
123.356492 98.794 -149.6584
124.250384 98.712 -150.0184
125.150753 98.628 -150.3778
126.057647 98.541 -150.7364
126.971113 98.449 -151.0941
127.891198 98.351 -151.4506
128.817950 98.247 -151.8060
129.751418 98.135 -152.1605
130.691651 98.018 -152.5142
131.638696 97.894 -152.8671
132.592604 97.767 -153.2195
133.553425 97.639 -153.5711
134.521208 97.511 -153.9219
135.496004 97.387 -154.2715
136.477864 97.270 -154.6196
137.466839 97.165 -154.9660
138.462981 97.074 -155.3106
139.466340 96.999 -155.6532
140.476971 96.942 -155.9940
141.494925 96.905 -156.3331
142.520256 96.885 -156.6703
143.553016 96.882 -157.0059
144.593260 96.891 -157.3398
145.641043 96.911 -157.6719
146.696418 96.935 -158.0024
147.759441 96.962 -158.3313
148.830166 96.986 -158.6589
149.908651 97.006 -158.9852
150.994951 97.020 -159.3104
152.089123 97.026 -159.6343
153.191223 97.024 -159.9568
154.301310 97.015 -160.2778
155.419441 97.000 -160.5970
156.545674 96.982 -160.9142
157.680069 96.961 -161.2291
158.822683 96.939 -161.5417
159.973578 96.919 -161.8519
161.132813 96.900 -162.1600
162.300447 96.883 -162.4663
163.476543 96.870 -162.7711
164.661162 96.860 -163.0750
165.854364 96.853 -163.3783
167.056213 96.850 -163.6810
168.266772 96.851 -163.9832
169.486102 96.856 -164.2849
170.714268 96.864 -164.5857
171.951334 96.877 -164.8854
173.197364 96.895 -165.1839
174.452424 96.917 -165.4808
175.716578 96.943 -165.7759
176.989893 96.972 -166.0691
178.272434 97.004 -166.3601
179.564270 97.037 -166.6488
180.865467 97.070 -166.9350
182.176092 97.102 -167.2186
183.496216 97.132 -167.4995
184.825905 97.160 -167.7778
186.165229 97.184 -168.0535
187.514259 97.205 -168.3268
188.873065 97.223 -168.5977
190.241717 97.238 -168.8666
191.620287 97.252 -169.1337
193.008847 97.264 -169.3992
194.407468 97.275 -169.6634
195.816225 97.286 -169.9265
197.235190 97.296 -170.1887
198.664438 97.305 -170.4502
200.104042 97.313 -170.7111
201.554078 97.320 -170.9712
203.014622 97.325 -171.2302
204.485750 97.327 -171.4879
205.967538 97.327 -171.7440
207.460064 97.323 -171.9983
208.963405 97.316 -172.2509
210.477640 97.305 -172.5021
212.002848 97.291 -172.7521
213.539108 97.275 -173.0009
215.086500 97.256 -173.2486
216.645105 97.235 -173.4949
218.215005 97.212 -173.7396
219.796281 97.187 -173.9822
221.389015 97.160 -174.2226
222.993292 97.130 -174.4604
224.609193 97.097 -174.6958
226.236804 97.059 -174.9285
227.876209 97.017 -175.1587
229.527494 96.969 -175.3863
231.190745 96.915 -175.6117
232.866048 96.856 -175.8349
234.553491 96.792 -176.0563
236.253163 96.722 -176.2761
237.965150 96.648 -176.4942
239.689544 96.571 -176.7106
241.426433 96.491 -176.9252
243.175909 96.410 -177.1374
244.938062 96.329 -177.3469
246.712984 96.248 -177.5530
248.500768 96.169 -177.7552
250.301507 96.092 -177.9531
252.115295 96.018 -178.1462
253.942226 95.947 -178.3344
255.782396 95.881 -178.5173
257.635901 95.819 -178.6947
259.502837 95.763 -178.8664
261.383301 95.712 -179.0322
263.277392 95.667 -179.1915
265.185209 95.629 -179.3443
267.106850 95.597 -179.4900
269.042417 95.571 -179.6281
270.992009 95.551 -179.7582
272.955729 95.537 -179.8798
274.933678 95.528 -179.9926
276.925961 95.523 179.9033
278.932681 95.523 179.8076
280.953942 95.527 179.7191
282.989850 95.534 179.6364
285.040511 95.546 179.5578
287.106032 95.561 179.4811
289.186521 95.582 179.4044
291.282086 95.608 179.3257
293.392836 95.641 179.2434
295.518881 95.680 179.1563
297.660333 95.726 179.0635
299.817302 95.778 178.9649
301.989902 95.835 178.8604
304.178245 95.895 178.7502
306.382446 95.958 178.6349
308.602620 96.020 178.5154
310.838882 96.081 178.3925
313.091348 96.137 178.2670
315.360137 96.189 178.1399
317.645367 96.233 178.0119
319.947156 96.270 177.8835
322.265625 96.298 177.7554
324.600895 96.317 177.6279
326.953086 96.326 177.5010
329.322323 96.324 177.3751
331.708729 96.312 177.2501
334.112427 96.288 177.1262
336.533543 96.254 177.0036
338.972204 96.210 176.8822
341.428536 96.156 176.7624
343.902668 96.094 176.6443
346.394729 96.024 176.5281
348.904848 95.949 176.4140
351.433156 95.869 176.3021
353.979786 95.788 176.1924
356.544869 95.708 176.0848
359.128540 95.632 175.9792
361.730934 95.562 175.8754
364.352185 95.501 175.7735
366.992431 95.453 175.6734
369.651810 95.419 175.5753
372.330459 95.401 175.4796
375.028519 95.401 175.3864
377.746130 95.419 175.2962
380.483434 95.454 175.2091
383.240574 95.505 175.1252
386.017693 95.570 175.0444
388.814937 95.645 174.9664
391.632450 95.730 174.8911
394.470380 95.820 174.8181
397.328875 95.913 174.7466
400.208084 96.007 174.6763
403.108157 96.100 174.6065
406.029245 96.192 174.5368
408.971500 96.280 174.4669
411.935076 96.365 174.3964
414.920127 96.447 174.3254
417.926810 96.527 174.2541
420.955280 96.604 174.1828
424.005695 96.681 174.1118
427.078215 96.756 174.0415
430.173000 96.832 173.9724
433.290211 96.909 173.9047
436.430010 96.985 173.8386
439.592562 97.061 173.7742
442.778031 97.135 173.7117
445.986583 97.207 173.6509
449.218386 97.274 173.5918
452.473607 97.336 173.5342
455.752418 97.391 173.4779
459.054987 97.437 173.4228
462.381489 97.474 173.3687
465.732096 97.500 173.3152
469.106983 97.516 173.2625
472.506325 97.522 173.2102
475.930301 97.518 173.1585
479.379088 97.504 173.1075
482.852867 97.483 173.0571
486.351817 97.455 173.0075
489.876123 97.421 172.9590
493.425968 97.381 172.9116
497.001536 97.338 172.8655
500.603014 97.290 172.8211
504.230589 97.240 172.7784
507.884452 97.186 172.7376
511.564792 97.129 172.6989
515.271802 97.070 172.6624
519.005673 97.008 172.6284
522.766602 96.945 172.5970
526.554785 96.881 172.5684
530.370418 96.820 172.5427
534.213700 96.762 172.5195
538.084833 96.709 172.4984
541.984018 96.663 172.4789
545.911457 96.626 172.4606
549.867357 96.599 172.4429
553.851922 96.581 172.4256
557.865362 96.572 172.4087
561.907884 96.571 172.3922
565.979700 96.575 172.3761
570.081022 96.584 172.3606
574.212064 96.594 172.3456
578.373042 96.604 172.3312
582.564171 96.612 172.3172
586.785671 96.616 172.3038
591.037762 96.615 172.2910
595.320665 96.607 172.2793
599.634604 96.592 172.2690
603.979804 96.571 172.2606
608.356491 96.542 172.2545
612.764893 96.507 172.2511
617.205240 96.467 172.2509
621.677763 96.421 172.2538
626.182696 96.373 172.2600
630.720274 96.324 172.2691
635.290733 96.275 172.2805
639.894312 96.229 172.2936
644.531250 96.187 172.3079
649.201789 96.151 172.3226
653.906173 96.122 172.3373
658.644647 96.100 172.3516
663.417457 96.086 172.3654
668.224854 96.080 172.3784
673.067086 96.079 172.3906
677.944408 96.083 172.4021
682.857073 96.090 172.4128
687.805336 96.099 172.4230
692.789457 96.107 172.4325
697.809695 96.113 172.4412
702.866312 96.117 172.4488
707.959571 96.118 172.4549
713.089738 96.114 172.4594
718.257080 96.106 172.4619
723.461867 96.094 172.4626
728.704370 96.077 172.4616
733.984862 96.057 172.4590
739.303619 96.035 172.4548
744.660918 96.009 172.4495
750.057038 95.982 172.4432
755.492260 95.954 172.4365
760.966869 95.925 172.4299
766.481148 95.895 172.4239
772.035387 95.864 172.4189
777.629873 95.832 172.4150
783.264900 95.797 172.4120
788.940760 95.760 172.4093
794.657750 95.720 172.4058
800.416168 95.675 172.4003
806.216313 95.625 172.3916
812.058489 95.569 172.3787
817.943000 95.508 172.3608
823.870152 95.441 172.3371
829.840255 95.369 172.3069
835.853619 95.292 172.2698
841.910559 95.210 172.2250
848.011390 95.126 172.1715
854.156430 95.039 172.1086
860.346000 94.951 172.0350
866.580422 94.863 171.9499
872.860020 94.776 171.8523
879.185124 94.690 171.7419
885.556062 94.606 171.6189
891.973166 94.525 171.4836
898.436771 94.448 171.3373
904.947215 94.375 171.1813
911.504835 94.307 171.0179
918.109975 94.244 170.8494
924.762978 94.186 170.6794
931.464192 94.135 170.5123
938.213966 94.089 170.3535
945.012651 94.050 170.2090
951.860602 94.017 170.0854
958.758176 93.989 169.9893
965.705733 93.968 169.9263
972.703635 93.953 169.9010
979.752246 93.945 169.9150
986.851935 93.946 169.9669
994.003071 93.955 170.0517
1001.206027 93.973 170.1614
1008.461179 94.001 170.2859
1015.768904 94.039 170.4148
1023.129584 94.087 170.5394
1030.543603 94.145 170.6534
1038.011347 94.211 170.7540
1045.533205 94.287 170.8408
1053.109569 94.371 170.9156
1060.740836 94.463 170.9818
1068.427401 94.563 171.0423
1076.169666 94.671 171.0997
1083.968035 94.785 171.1548
1091.822915 94.904 171.2071
1099.734713 95.027 171.2542
1107.703844 95.152 171.2928
1115.730723 95.277 171.3196
1123.815768 95.400 171.3315
1131.959400 95.518 171.3262
1140.162045 95.631 171.3028
1148.424129 95.738 171.2609
1156.746083 95.838 171.2014
1165.128342 95.931 171.1255
1173.571343 96.018 171.0350
1182.075524 96.101 170.9319
1190.641331 96.180 170.8181
1199.269209 96.256 170.6950
1207.959608 96.330 170.5640
1216.712981 96.404 170.4256
1225.529785 96.477 170.2796
1234.410479 96.550 170.1252
1243.355526 96.621 169.9615
1252.365393 96.691 169.7878
1261.440549 96.758 169.6035
1270.581467 96.822 169.4093
1279.788624 96.880 169.2062
1289.062500 96.933 168.9963
1298.403578 96.981 168.7821
1307.812346 97.022 168.5662
1317.289293 97.058 168.3514
1326.834914 97.088 168.1402
1336.449707 97.113 167.9353
1346.134173 97.133 167.7394
1355.888816 97.149 167.5547
1365.714145 97.161 167.3830
1375.610673 97.170 167.2249
1385.578915 97.177 167.0801
1395.619391 97.181 166.9471
1405.732624 97.182 166.8234
1415.919142 97.182 166.7065
1426.179476 97.181 166.5936
1436.514160 97.178 166.4824
1446.923734 97.175 166.3717
1457.408740 97.172 166.2611
1467.969724 97.169 166.1513
1478.607238 97.167 166.0438
1489.321836 97.166 165.9401
1500.114076 97.168 165.8414
1510.984521 97.172 165.7486
1521.933737 97.178 165.6624
1532.962297 97.187 165.5832
1544.070773 97.199 165.5109
1555.259747 97.213 165.4456
1566.529800 97.229 165.3874
1577.881521 97.247 165.3365
1589.315501 97.264 165.2933
1600.832336 97.282 165.2583
1612.432627 97.300 165.2320
1624.116978 97.318 165.2148
1635.886000 97.335 165.2074
1647.740304 97.353 165.2099
1659.680509 97.370 165.2223
1671.707238 97.388 165.2435
1683.821118 97.408 165.2712
1696.022780 97.429 165.3015
1708.312860 97.453 165.3297
1720.692000 97.478 165.3512
1733.160843 97.504 165.3630
1745.720041 97.530 165.3648
1758.370248 97.556 165.3587
1771.112124 97.580 165.3493
1783.946332 97.602 165.3419
1796.873543 97.622 165.3420
1809.894429 97.639 165.3534
1823.009670 97.655 165.3781
1836.219950 97.669 165.4156
1849.525956 97.682 165.4642
1862.928384 97.694 165.5206
1876.427931 97.705 165.5810
1890.025301 97.715 165.6423
1903.721204 97.724 165.7021
1917.516352 97.733 165.7591
1931.411466 97.739 165.8134
1945.407270 97.743 165.8666
1959.504493 97.744 165.9219
1973.703870 97.741 165.9836
1988.006142 97.733 166.0565
2002.412054 97.720 166.1445
2016.922357 97.702 166.2501
2031.537808 97.677 166.3740
2046.259169 97.647 166.5153
2061.087206 97.611 166.6720
2076.022694 97.569 166.8413
2091.066410 97.521 167.0193
2106.219139 97.468 167.2017
2121.481671 97.411 167.3843
2136.854802 97.350 167.5643
2152.339333 97.286 167.7400
2167.936071 97.219 167.9117
2183.645829 97.151 168.0810
2199.469427 97.082 168.2499
2215.407689 97.015 168.4207
2231.461446 96.951 168.5951
2247.631536 96.890 168.7737
2263.918800 96.833 168.9562
2280.324089 96.783 169.1406
2296.848258 96.738 169.3232
2313.492167 96.700 169.4994
2330.256685 96.667 169.6643
2347.142685 96.639 169.8143
2364.151049 96.616 169.9473
2381.282662 96.596 170.0630
2398.538418 96.578 170.1624
2415.919216 96.562 170.2472
2433.425962 96.548 170.3191
2451.059570 96.536 170.3798
2468.820958 96.524 170.4313
2486.711052 96.515 170.4753
2504.730786 96.507 170.5134
2522.881098 96.503 170.5465
2541.162934 96.501 170.5755
2559.577248 96.503 170.6011
2578.125000 96.510 170.6242
2596.807157 96.523 170.6456
2615.624692 96.542 170.6660
2634.578586 96.569 170.6866
2653.669829 96.603 170.7090
2672.899414 96.646 170.7349
2692.268345 96.699 170.7665
2711.777632 96.760 170.8057
2731.428290 96.831 170.8543
2751.221345 96.910 170.9140
2771.157829 96.997 170.9863
2791.238781 97.091 171.0728
2811.465248 97.190 171.1745
2831.838284 97.292 171.2920
2852.358952 97.397 171.4241
2873.028321 97.504 171.5680
2893.847468 97.610 171.7193
2914.817480 97.714 171.8723
2935.939449 97.816 172.0210
2957.214476 97.912 172.1599
2978.643672 98.002 172.2844
3000.228152 98.086 172.3909
3021.969041 98.161 172.4769
3043.867475 98.228 172.5413
3065.924593 98.286 172.5840
3088.141547 98.336 172.6060
3110.519493 98.378 172.6087
3133.059600 98.412 172.5938
3155.763041 98.439 172.5626
3178.631001 98.461 172.5161
3201.664672 98.477 172.4551
3224.865254 98.488 172.3806
3248.233957 98.496 172.2934
3271.771999 98.500 172.1947
3295.480608 98.502 172.0851
3319.361019 98.501 171.9649
3343.414477 98.497 171.8341
3367.642236 98.491 171.6933
3392.045560 98.483 171.5442
3416.625721 98.473 171.3897
3441.383999 98.460 171.2339
3466.321686 98.445 171.0814
3491.440082 98.429 170.9364
3516.740496 98.413 170.8030
3542.224247 98.397 170.6844
3567.892664 98.384 170.5829
3593.747085 98.374 170.4996
3619.788858 98.368 170.4346
3646.019340 98.368 170.3867
3672.439900 98.374 170.3544
3699.051913 98.386 170.3354
3725.856768 98.406 170.3277
3752.855862 98.433 170.3292
3780.050603 98.468 170.3379
3807.442408 98.509 170.3515
3835.032705 98.558 170.3679
3862.822933 98.612 170.3851
3890.814540 98.673 170.4009
3919.008986 98.739 170.4130
3947.407741 98.810 170.4191
3976.012284 98.885 170.4166
4004.824108 98.964 170.4033
4033.844715 99.046 170.3769
4063.075616 99.130 170.3349
4092.518337 99.216 170.2745
4122.174412 99.303 170.1926
4152.045387 99.391 170.0858
4182.132820 99.479 169.9509
4212.438278 99.566 169.7853
4242.963342 99.651 169.5865
4273.709604 99.735 169.3528
4304.678665 99.814 169.0830
4335.872141 99.890 168.7768
4367.291658 99.961 168.4347
4398.938854 100.025 168.0577
4430.815378 100.082 167.6477
4462.922893 100.130 167.2073
4495.263072 100.169 166.7402
4527.837601 100.197 166.2504
4560.648179 100.214 165.7426
4593.696515 100.220 165.2215
4626.984334 100.214 164.6920
4660.513370 100.197 164.1586
4694.285371 100.169 163.6251
4728.302098 100.132 163.0944
4762.565324 100.086 162.5679
4797.076835 100.034 162.0460
4831.838432 99.976 161.5275
4866.851925 99.915 161.0102
4902.119140 99.851 160.4904
4937.641916 99.787 159.9633
4973.422105 99.723 159.4232
5009.461572 99.660 158.8639
5045.762195 99.599 158.2788
5082.325868 99.538 157.6619
5119.154496 99.479 157.0080
5156.250000 99.420 156.3127
5193.614313 99.359 155.5731
5231.249383 99.294 154.7878
5269.157173 99.225 153.9576
5307.339658 99.149 153.0847
5345.798829 99.064 152.1736
5384.536691 98.968 151.2308
5423.555263 98.858 150.2643
5462.856580 98.734 149.2844
5502.442691 98.594 148.3026
5542.315659 98.436 147.3321
5582.477563 98.260 146.3875
5622.930497 98.065 145.4841
5663.676569 97.853 144.6378
5704.717904 97.623 143.8645
5746.056642 97.377 143.1808
5787.694937 97.116 142.6035
5829.634960 96.842 142.1504
5871.878898 96.556 141.8402
5914.428953 96.261 141.6927
5957.287343 95.960 141.7288
6000.456303 95.656 141.9686
6043.938083 95.351 142.4312
6087.734950 95.052 143.1312
6131.849187 94.761 144.0759
6176.283094 94.485 145.2629
6221.038987 94.227 146.6772
6266.119200 93.991 148.2913
6311.526083 93.780 150.0660
6357.262002 93.595 151.9534
6403.329344 93.435 153.9017
6449.730508 93.300 155.8607
6496.467914 93.185 157.7865
6543.543998 93.087 159.6455
6590.961215 93.002 161.4156
6638.722037 92.926 163.0865
6686.828954 92.855 164.6578
6735.284473 92.788 166.1379
6784.091120 92.723 167.5411
6833.251441 92.658 168.8856
6882.767998 92.595 170.1907
6932.643372 92.534 171.4752
6982.880164 92.477 172.7544
7033.480992 92.427 174.0391
7084.448495 92.385 175.3343
7135.785329 92.354 176.6395
7187.494171 92.335 177.9497
7239.577717 92.328 179.2570
7292.038681 92.334 -179.4473
7344.879799 92.351 -178.1709
7398.103826 92.377 -176.9191
7451.713536 92.410 -175.6949
7505.711724 92.448 -174.4986
7560.101205 92.489 -173.3293
7614.884815 92.530 -172.1858
7670.065409 92.571 -171.0682
7725.645865 92.609 -169.9788
7781.629080 92.644 -168.9227
7838.017972 92.674 -167.9077
7894.815481 92.698 -166.9433
7952.024569 92.715 -166.0381
8009.648217 92.722 -165.1983
8067.689429 92.718 -164.4243
8126.151233 92.700 -163.7088
8185.036674 92.666 -163.0349
8244.348824 92.614 -162.3753
8304.090774 92.545 -161.6927
8364.265639 92.459 -160.9420
8424.876556 92.359 -160.0745
8485.926684 92.252 -159.0442
8547.419207 92.146 -157.8160
8609.357330 92.050 -156.3741
8671.744282 91.976 -154.7289
8734.583316 91.935 -152.9185
8797.877707 91.936 -151.0049
8861.630756 91.984 -149.0640
8925.845785 92.081 -147.1740
8990.526143 92.226 -145.4042
9055.675202 92.413 -143.8094
9121.296357 92.637 -142.4287
9187.393031 92.891 -141.2884
9253.968668 93.166 -140.4058
9321.026740 93.457 -139.7931
9388.570742 93.755 -139.4597
9456.604196 94.054 -139.4134
9525.130648 94.346 -139.6603
9594.153671 94.626 -140.2038
9663.676863 94.885 -141.0432
9733.703850 95.119 -142.1723
9804.238280 95.320 -143.5786
9875.283832 95.483 -145.2425
9946.844210 95.604 -147.1371
10018.923143 95.678 -149.2289
10091.524390 95.703 -151.4783
10164.651736 95.676 -153.8412
10238.308993 95.598 -156.2709
10312.500000 95.469 -158.7201
10387.228626 95.292 -161.1436
10462.498767 95.070 -163.5003
10538.314345 94.809 -165.7548
10614.679315 94.512 -167.8793
10691.597657 94.187 -169.8539
10769.073381 93.837 -171.6668
10847.110526 93.469 -173.3150
10925.713161 93.087 -174.8026
11004.885382 92.695 -176.1410
11084.631318 92.297 -177.3470
11164.955126 91.894 -178.4421
11245.860993 91.488 -179.4503
11327.353138 91.078 179.6030
11409.435808 90.665 178.6929
11492.113283 90.248 177.7970
11575.389873 89.825 176.8968
11659.269920 89.395 175.9794
11743.757796 88.955 175.0386
11828.857906 88.504 174.0763
11914.574686 88.040 173.1029
12000.912606 87.560 172.1378
12087.876166 87.065 171.2097
12175.469900 86.552 170.3558
12263.698373 86.024 169.6212
12352.566187 85.481 169.0558
12442.077974 84.929 168.7108
12532.238400 84.377 168.6298
12623.052165 83.836 168.8384
12714.524005 83.325 169.3302
12806.658687 82.866 170.0533
12899.461015 82.483 170.9025
12992.935827 82.203 171.7225
13087.087996 82.046 172.3255
13181.922430 82.020 172.5187
13277.444074 82.125 172.1325
13373.657907 82.346 171.0399
13470.568945 82.663 169.1619
13568.182241 83.051 166.4627
13666.502883 83.485 162.9392
13765.535996 83.944 158.6108
13865.286744 84.410 153.5123
13965.760328 84.866 147.6894
14066.961984 85.298 141.1977
14168.896989 85.695 134.1031
14271.570658 86.044 126.4830
14374.988342 86.335 118.4263
14479.155433 86.561 110.0344
14584.077362 86.712 101.4187
14689.759598 86.785 92.6981
14796.207652 86.775 83.9933
14903.427072 86.682 75.4211
15011.423448 86.508 67.0883
15120.202410 86.257 59.0874
15229.769630 85.934 51.4943
15340.130819 85.548 44.3672
15451.291730 85.106 37.7483
15563.258160 84.619 31.6635
15676.035944 84.098 26.1241
15789.630962 83.556 21.1265
15904.049137 83.005 16.6509
16019.296433 82.461 12.6605
16135.378859 81.941 9.1002
16252.302465 81.462 5.8960
16370.073348 81.039 2.9587
16488.697648 80.683 0.1887
16608.181548 80.400 -2.5150
16728.531278 80.188 -5.2448
16849.753112 80.039 -8.0743
16971.853368 79.939 -11.0519
17094.838414 79.875 -14.1978
17218.714660 79.833 -17.5071
17343.488565 79.808 -20.9589
17469.166632 79.799 -24.5277
17595.755415 79.812 -28.1991
17723.261512 79.859 -31.9812
17851.691571 79.952 -35.9120
17981.052287 80.099 -40.0576
18111.350404 80.300 -44.5020
18242.592715 80.549 -49.3336
18374.786062 80.834 -54.6318
18507.937336 81.139 -60.4554
18642.053479 81.446 -66.8333
18777.141484 81.740 -73.7549
18913.208391 82.007 -81.1569
19050.261296 82.239 -88.9092
19188.307342 82.431 -96.8030
19327.353727 82.581 -104.5511
19467.407699 82.692 -111.8044
19608.476560 82.770 -118.1865
19750.567664 82.821 -123.3373
19893.688419 82.850 -126.9534
20037.846286 82.863 -128.8177
