* Measurement data measured by REW V5.31.3
* Source: EXCL: Headset (USB-C to 3.5mm Headphone Jack Adapter), MICROPHONE (Master Volume), 0, volume: 0.260
* Format: 256k Log Swept Sine, 1 sweep at -12.0 dBFS with no timing reference
* Dated: Feb 9, 2025 9:59:14 PM
* REW Settings:
*  C-weighting compensation: Off
*  Target level: 75.0 dB
* Note: ; 
* Measurement: AKG K701 L6
* Smoothing: 1/6 octave
* Frequency Step: 96 ppo
* Start Frequency: 20.0 Hz
*
* Freq(Hz) SPL(dB) Phase(degrees)
20.141602 83.820 -45.9153
20.287556 83.833 -46.0537
20.434568 83.848 -46.2433
20.582645 83.864 -46.4845
20.731796 83.878 -46.7786
20.882027 83.887 -47.1274
21.033346 83.890 -47.5332
21.185763 83.885 -47.9978
21.339284 83.871 -48.5221
21.493917 83.849 -49.1053
21.649671 83.818 -49.7444
21.806553 83.778 -50.4343
21.964572 83.732 -51.1673
22.123737 83.681 -51.9338
22.284054 83.626 -52.7228
22.445534 83.571 -53.5228
22.608183 83.516 -54.3221
22.772012 83.465 -55.1100
22.937027 83.419 -55.8777
23.103238 83.380 -56.6182
23.270654 83.351 -57.3276
23.439282 83.333 -58.0042
23.609133 83.327 -58.6493
23.780215 83.333 -59.2662
23.952536 83.353 -59.8598
24.126106 83.384 -60.4364
24.300934 83.427 -61.0024
24.477028 83.481 -61.5642
24.654399 83.542 -62.1273
24.833055 83.610 -62.6963
25.013005 83.683 -63.2743
25.194260 83.758 -63.8632
25.376828 83.834 -64.4632
25.560719 83.909 -65.0734
25.745942 83.980 -65.6915
25.932508 84.048 -66.3146
26.120426 84.110 -66.9390
26.309705 84.167 -67.5606
26.500356 84.217 -68.1756
26.692388 84.260 -68.7801
26.885812 84.297 -69.3714
27.080638 84.328 -69.9472
27.276876 84.353 -70.5066
27.474535 84.375 -71.0497
27.673627 84.393 -71.5781
27.874161 84.412 -72.0942
28.076149 84.432 -72.6016
28.279600 84.459 -73.1046
28.484526 84.494 -73.6080
28.690937 84.543 -74.1168
28.898843 84.607 -74.6356
29.108256 84.690 -75.1687
29.319186 84.793 -75.7195
29.531645 84.917 -76.2900
29.745644 85.060 -76.8812
29.961193 85.220 -77.4924
30.178304 85.392 -78.1215
30.396989 85.571 -78.7651
30.617258 85.752 -79.4186
30.839123 85.928 -80.0769
31.062596 86.094 -80.7350
31.287688 86.244 -81.3881
31.514412 86.373 -82.0326
31.742778 86.478 -82.6662
31.972800 86.556 -83.2883
32.204488 86.604 -83.8997
32.437855 86.623 -84.5025
32.672913 86.611 -85.0996
32.909674 86.571 -85.6941
33.148151 86.503 -86.2885
33.388356 86.410 -86.8843
33.630302 86.296 -87.4819
33.874001 86.164 -88.0800
34.119466 86.019 -88.6762
34.366710 85.864 -89.2673
34.615745 85.705 -89.8499
34.866585 85.545 -90.4211
35.119243 85.390 -90.9789
35.373731 85.244 -91.5228
35.630064 85.109 -92.0538
35.888254 84.990 -92.5742
36.148315 84.889 -93.0877
36.410261 84.807 -93.5985
36.674104 84.746 -94.1110
36.939860 84.707 -94.6294
37.207542 84.690 -95.1568
37.477163 84.695 -95.6955
37.748738 84.722 -96.2462
38.022281 84.769 -96.8083
38.297806 84.837 -97.3799
38.575327 84.924 -97.9582
38.854860 85.030 -98.5395
39.136419 85.153 -99.1194
39.420017 85.293 -99.6938
39.705671 85.449 -100.2589
39.993395 85.620 -100.8114
40.283203 85.805 -101.3497
40.575112 86.003 -101.8733
40.869136 86.212 -102.3834
41.165290 86.431 -102.8824
41.463591 86.658 -103.3737
41.764053 86.891 -103.8609
42.066693 87.127 -104.3473
42.371525 87.365 -104.8351
42.678567 87.602 -105.3256
42.987834 87.836 -105.8192
43.299341 88.066 -106.3154
43.613106 88.288 -106.8136
43.929145 88.502 -107.3131
44.247473 88.706 -107.8134
44.568109 88.897 -108.3143
44.891068 89.076 -108.8150
45.216367 89.239 -109.3148
45.544023 89.387 -109.8124
45.874054 89.518 -110.3067
46.206476 89.632 -110.7972
46.541307 89.728 -111.2838
46.878565 89.807 -111.7671
47.218266 89.869 -112.2477
47.560429 89.915 -112.7257
47.905072 89.945 -113.2000
48.252212 89.960 -113.6685
48.601867 89.961 -114.1280
48.954056 89.949 -114.5756
49.308798 89.925 -115.0093
49.666109 89.892 -115.4287
50.026010 89.852 -115.8356
50.388520 89.806 -116.2334
50.753656 89.756 -116.6270
51.121437 89.705 -117.0218
51.491884 89.655 -117.4221
51.865016 89.607 -117.8305
52.240851 89.563 -118.2464
52.619410 89.524 -118.6663
53.000712 89.490 -119.0842
53.384777 89.461 -119.4931
53.771625 89.437 -119.8865
54.161276 89.417 -120.2605
54.553751 89.400 -120.6144
54.949070 89.385 -120.9508
55.347254 89.369 -121.2743
55.748323 89.352 -121.5904
56.152298 89.332 -121.9042
56.559201 89.308 -122.2198
56.969052 89.279 -122.5396
57.381873 89.246 -122.8644
57.797686 89.208 -123.1926
58.216512 89.166 -123.5205
58.638373 89.121 -123.8426
59.063291 89.075 -124.1524
59.491288 89.028 -124.4437
59.922386 88.982 -124.7127
60.356608 88.938 -124.9584
60.793977 88.897 -125.1825
61.234515 88.860 -125.3891
61.678246 88.825 -125.5828
62.125192 88.793 -125.7683
62.575377 88.764 -125.9497
63.028824 88.738 -126.1304
63.485557 88.715 -126.3133
63.945599 88.696 -126.5009
64.408975 88.681 -126.6947
64.875709 88.670 -126.8962
65.345825 88.663 -127.1060
65.819348 88.660 -127.3247
66.296302 88.661 -127.5523
66.776713 88.666 -127.7884
67.260604 88.674 -128.0327
67.748002 88.686 -128.2845
68.238932 88.701 -128.5437
68.733420 88.719 -128.8103
69.231490 88.738 -129.0845
69.733170 88.760 -129.3666
70.238485 88.784 -129.6570
70.747463 88.808 -129.9556
71.260128 88.834 -130.2623
71.776508 88.860 -130.5766
72.296630 88.887 -130.8981
72.820521 88.915 -131.2261
73.348209 88.944 -131.5604
73.879720 88.973 -131.9005
74.415083 89.003 -132.2461
74.954326 89.033 -132.5963
75.497475 89.063 -132.9500
76.044561 89.093 -133.3061
76.595612 89.122 -133.6633
77.150655 89.149 -134.0210
77.709720 89.174 -134.3785
78.272837 89.196 -134.7358
78.840034 89.215 -135.0923
79.411342 89.231 -135.4476
79.986789 89.243 -135.8013
80.566406 89.251 -136.1530
81.150224 89.254 -136.5025
81.738272 89.254 -136.8501
82.330581 89.251 -137.1959
82.927182 89.246 -137.5399
83.528107 89.240 -137.8820
84.133386 89.236 -138.2217
84.743051 89.235 -138.5587
85.357134 89.241 -138.8925
85.975667 89.256 -139.2229
86.598682 89.284 -139.5497
87.226212 89.328 -139.8726
87.858289 89.392 -140.1915
88.494946 89.477 -140.5061
89.136217 89.586 -140.8166
89.782135 89.719 -141.1233
90.432733 89.875 -141.4269
91.088046 90.051 -141.7282
91.748108 90.245 -142.0284
92.412952 90.450 -142.3284
93.082615 90.663 -142.6292
93.757130 90.878 -142.9313
94.436533 91.088 -143.2346
95.120859 91.289 -143.5385
95.810144 91.477 -143.8415
96.504423 91.649 -144.1420
97.203734 91.803 -144.4378
97.908112 91.940 -144.7277
98.617595 92.058 -145.0108
99.332219 92.160 -145.2872
100.052021 92.248 -145.5576
100.777039 92.323 -145.8234
101.507311 92.388 -146.0865
102.242875 92.444 -146.3490
102.983769 92.493 -146.6131
103.730032 92.537 -146.8805
104.481702 92.576 -147.1518
105.238820 92.610 -147.4269
106.001424 92.638 -147.7044
106.769554 92.660 -147.9826
107.543250 92.674 -148.2599
108.322553 92.678 -148.5343
109.107503 92.672 -148.8046
109.898141 92.653 -149.0696
110.694508 92.621 -149.3291
111.496646 92.575 -149.5834
112.304596 92.517 -149.8333
113.118402 92.447 -150.0795
113.938104 92.368 -150.3228
114.763747 92.280 -150.5635
115.595372 92.188 -150.8019
116.433024 92.092 -151.0383
117.276746 91.995 -151.2727
118.126581 91.899 -151.5051
118.982575 91.804 -151.7352
119.844772 91.712 -151.9628
120.713217 91.623 -152.1878
121.587954 91.537 -152.4103
122.469031 91.453 -152.6311
123.356492 91.369 -152.8512
124.250384 91.285 -153.0717
125.150753 91.199 -153.2937
126.057647 91.110 -153.5183
126.971113 91.016 -153.7460
127.891198 90.916 -153.9766
128.817950 90.810 -154.2096
129.751418 90.697 -154.4438
130.691651 90.579 -154.6777
131.638696 90.456 -154.9102
132.592604 90.329 -155.1402
133.553425 90.201 -155.3672
134.521208 90.074 -155.5908
135.496004 89.952 -155.8111
136.477864 89.838 -156.0282
137.466839 89.734 -156.2423
138.462981 89.646 -156.4541
139.466340 89.574 -156.6643
140.476971 89.520 -156.8738
141.494925 89.485 -157.0830
142.520256 89.468 -157.2925
143.553016 89.468 -157.5021
144.593260 89.480 -157.7117
145.641043 89.502 -157.9208
146.696418 89.529 -158.1288
147.759441 89.559 -158.3349
148.830166 89.586 -158.5390
149.908651 89.609 -158.7406
150.994951 89.626 -158.9397
152.089123 89.636 -159.1361
153.191223 89.638 -159.3296
154.301310 89.634 -159.5202
155.419441 89.624 -159.7085
156.545674 89.612 -159.8949
157.680069 89.597 -160.0805
158.822683 89.582 -160.2665
159.973578 89.569 -160.4541
161.132813 89.559 -160.6447
162.300447 89.551 -160.8392
163.476543 89.547 -161.0385
164.661162 89.546 -161.2430
165.854364 89.549 -161.4525
167.056213 89.554 -161.6670
168.266772 89.563 -161.8857
169.486102 89.575 -162.1080
170.714268 89.590 -162.3330
171.951334 89.609 -162.5595
173.197364 89.630 -162.7862
174.452424 89.655 -163.0116
175.716578 89.683 -163.2340
176.989893 89.713 -163.4518
178.272434 89.745 -163.6631
179.564270 89.777 -163.8665
180.865467 89.809 -164.0604
182.176092 89.840 -164.2439
183.496216 89.869 -164.4164
184.825905 89.896 -164.5778
186.165229 89.920 -164.7284
187.514259 89.942 -164.8692
188.873065 89.962 -165.0014
190.241717 89.982 -165.1269
191.620287 90.000 -165.2480
193.008847 90.018 -165.3671
194.407468 90.037 -165.4868
195.816225 90.056 -165.6093
197.235190 90.075 -165.7363
198.664438 90.095 -165.8687
200.104042 90.114 -166.0069
201.554078 90.132 -166.1506
203.014622 90.148 -166.2990
204.485750 90.162 -166.4506
205.967538 90.173 -166.6039
207.460064 90.180 -166.7572
208.963405 90.184 -166.9093
210.477640 90.185 -167.0595
212.002848 90.181 -167.2076
213.539108 90.175 -167.3537
215.086500 90.165 -167.4985
216.645105 90.153 -167.6422
218.215005 90.140 -167.7851
219.796281 90.124 -167.9273
221.389015 90.106 -168.0687
222.993292 90.085 -168.2090
224.609193 90.062 -168.3480
226.236804 90.035 -168.4854
227.876209 90.003 -168.6206
229.527494 89.966 -168.7533
231.190745 89.924 -168.8834
232.866048 89.877 -169.0110
234.553491 89.825 -169.1367
236.253163 89.768 -169.2611
237.965150 89.708 -169.3847
239.689544 89.645 -169.5079
241.426433 89.580 -169.6308
243.175909 89.515 -169.7533
244.938062 89.450 -169.8754
246.712984 89.386 -169.9970
248.500768 89.325 -170.1182
250.301507 89.266 -170.2393
252.115295 89.211 -170.3607
253.942226 89.160 -170.4827
255.782396 89.113 -170.6055
257.635901 89.072 -170.7292
259.502837 89.037 -170.8538
261.383301 89.008 -170.9791
263.277392 88.985 -171.1045
265.185209 88.968 -171.2297
267.106850 88.957 -171.3542
269.042417 88.952 -171.4773
270.992009 88.952 -171.5989
272.955729 88.956 -171.7187
274.933678 88.965 -171.8369
276.925961 88.977 -171.9538
278.932681 88.991 -172.0696
280.953942 89.009 -172.1849
282.989850 89.028 -172.2997
285.040511 89.049 -172.4138
287.106032 89.073 -172.5271
289.186521 89.100 -172.6393
291.282086 89.131 -172.7500
293.392836 89.166 -172.8591
295.518881 89.207 -172.9662
297.660333 89.253 -173.0712
299.817302 89.304 -173.1740
301.989902 89.361 -173.2746
304.178245 89.420 -173.3730
306.382446 89.482 -173.4691
308.602620 89.544 -173.5629
310.838882 89.605 -173.6544
313.091348 89.663 -173.7437
315.360137 89.715 -173.8308
317.645367 89.762 -173.9160
319.947156 89.802 -173.9998
322.265625 89.833 -174.0824
324.600895 89.856 -174.1645
326.953086 89.869 -174.2463
329.322323 89.872 -174.3282
331.708729 89.865 -174.4099
334.112427 89.847 -174.4912
336.533543 89.819 -174.5717
338.972204 89.780 -174.6510
341.428536 89.732 -174.7284
343.902668 89.676 -174.8038
346.394729 89.613 -174.8768
348.904848 89.544 -174.9474
351.433156 89.471 -175.0156
353.979786 89.397 -175.0815
356.544869 89.325 -175.1453
359.128540 89.256 -175.2069
361.730934 89.195 -175.2666
364.352185 89.143 -175.3244
366.992431 89.104 -175.3808
369.651810 89.081 -175.4361
372.330459 89.074 -175.4910
375.028519 89.086 -175.5467
377.746130 89.116 -175.6042
380.483434 89.164 -175.6651
383.240574 89.229 -175.7309
386.017693 89.307 -175.8033
388.814937 89.397 -175.8837
391.632450 89.495 -175.9736
394.470380 89.598 -176.0743
397.328875 89.703 -176.1867
400.208084 89.808 -176.3116
403.108157 89.910 -176.4495
406.029245 90.008 -176.6006
408.971500 90.100 -176.7647
411.935076 90.187 -176.9407
414.920127 90.266 -177.1269
417.926810 90.339 -177.3204
420.955280 90.405 -177.5171
424.005695 90.465 -177.7113
427.078215 90.519 -177.8958
430.173000 90.568 -178.0620
433.290211 90.613 -178.2005
436.430010 90.654 -178.3016
439.592562 90.693 -178.3571
442.778031 90.729 -178.3604
445.986583 90.763 -178.3083
449.218386 90.795 -178.2007
452.473607 90.826 -178.0413
455.752418 90.854 -177.8373
459.054987 90.880 -177.5981
462.381489 90.902 -177.3349
465.732096 90.921 -177.0599
469.106983 90.935 -176.7845
472.506325 90.945 -176.5190
475.930301 90.950 -176.2720
479.379088 90.951 -176.0497
482.852867 90.946 -175.8561
486.351817 90.938 -175.6931
489.876123 90.925 -175.5609
493.425968 90.908 -175.4580
497.001536 90.888 -175.3824
500.603014 90.864 -175.3311
504.230589 90.836 -175.3011
507.884452 90.804 -175.2890
511.564792 90.768 -175.2918
515.271802 90.728 -175.3062
519.005673 90.685 -175.3293
522.766602 90.638 -175.3584
526.554785 90.590 -175.3910
530.370418 90.542 -175.4250
534.213700 90.495 -175.4586
538.084833 90.453 -175.4904
541.984018 90.415 -175.5194
545.911457 90.385 -175.5449
549.867357 90.363 -175.5667
553.851922 90.349 -175.5849
557.865362 90.344 -175.5994
561.907884 90.344 -175.6100
565.979700 90.350 -175.6163
570.081022 90.359 -175.6175
574.212064 90.370 -175.6131
578.373042 90.379 -175.6027
582.564171 90.387 -175.5865
586.785671 90.390 -175.5652
591.037762 90.389 -175.5399
595.320665 90.382 -175.5120
599.634604 90.368 -175.4829
603.979804 90.347 -175.4537
608.356491 90.319 -175.4254
612.764893 90.285 -175.3985
617.205240 90.245 -175.3730
621.677763 90.199 -175.3486
626.182696 90.149 -175.3245
630.720274 90.097 -175.3001
635.290733 90.044 -175.2742
639.894312 89.991 -175.2456
644.531250 89.941 -175.2129
649.201789 89.895 -175.1744
653.906173 89.854 -175.1286
658.644647 89.820 -175.0739
663.417457 89.791 -175.0086
668.224854 89.769 -174.9309
673.067086 89.752 -174.8389
677.944408 89.738 -174.7304
682.857073 89.728 -174.6035
687.805336 89.719 -174.4568
692.789457 89.712 -174.2896
697.809695 89.704 -174.1024
702.866312 89.696 -173.8976
707.959571 89.687 -173.6793
713.089738 89.677 -173.4533
718.257080 89.667 -173.2265
723.461867 89.656 -173.0061
728.704370 89.643 -172.7981
733.984862 89.630 -172.6073
739.303619 89.616 -172.4363
744.660918 89.600 -172.2856
750.057038 89.584 -172.1543
755.492260 89.565 -172.0401
760.966869 89.545 -171.9403
766.481148 89.523 -171.8518
772.035387 89.498 -171.7717
777.629873 89.470 -171.6975
783.264900 89.439 -171.6270
788.940760 89.403 -171.5585
794.657750 89.361 -171.4905
800.416168 89.314 -171.4220
806.216313 89.259 -171.3523
812.058489 89.198 -171.2811
817.943000 89.130 -171.2085
823.870152 89.055 -171.1346
829.840255 88.973 -171.0594
835.853619 88.884 -170.9827
841.910559 88.791 -170.9038
848.011390 88.693 -170.8218
854.156430 88.592 -170.7354
860.346000 88.488 -170.6431
866.580422 88.384 -170.5433
872.860020 88.279 -170.4351
879.185124 88.177 -170.3176
885.556062 88.077 -170.1908
891.973166 87.982 -170.0551
898.436771 87.892 -169.9115
904.947215 87.810 -169.7613
911.504835 87.736 -169.6057
918.109975 87.671 -169.4455
924.762978 87.615 -169.2814
931.464192 87.570 -169.1132
938.213966 87.535 -168.9404
945.012651 87.509 -168.7623
951.860602 87.494 -168.5780
958.758176 87.488 -168.3869
965.705733 87.490 -168.1884
972.703635 87.500 -167.9822
979.752246 87.518 -167.7688
986.851935 87.543 -167.5487
994.003071 87.573 -167.3232
1001.206027 87.610 -167.0934
1008.461179 87.652 -166.8608
1015.768904 87.700 -166.6267
1023.129584 87.754 -166.3923
1030.543603 87.815 -166.1583
1038.011347 87.882 -165.9252
1045.533205 87.957 -165.6927
1053.109569 88.039 -165.4608
1060.740836 88.128 -165.2291
1068.427401 88.224 -164.9971
1076.169666 88.326 -164.7641
1083.968035 88.434 -164.5293
1091.822915 88.544 -164.2917
1099.734713 88.656 -164.0502
1107.703844 88.769 -163.8038
1115.730723 88.879 -163.5519
1123.815768 88.986 -163.2941
1131.959400 89.089 -163.0307
1140.162045 89.186 -162.7619
1148.424129 89.277 -162.4882
1156.746083 89.361 -162.2096
1165.128342 89.440 -161.9251
1173.571343 89.514 -161.6326
1182.075524 89.584 -161.3287
1190.641331 89.651 -161.0095
1199.269209 89.716 -160.6711
1207.959608 89.783 -160.3105
1216.712981 89.852 -159.9268
1225.529785 89.924 -159.5217
1234.410479 89.999 -159.0990
1243.355526 90.079 -158.6649
1252.365393 90.162 -158.2258
1261.440549 90.248 -157.7885
1270.581467 90.335 -157.3582
1279.788624 90.421 -156.9385
1289.062500 90.506 -156.5306
1298.403578 90.589 -156.1340
1307.812346 90.669 -155.7465
1317.289293 90.746 -155.3653
1326.834914 90.820 -154.9873
1336.449707 90.891 -154.6097
1346.134173 90.961 -154.2299
1355.888816 91.028 -153.8458
1365.714145 91.094 -153.4552
1375.610673 91.159 -153.0563
1385.578915 91.224 -152.6473
1395.619391 91.289 -152.2274
1405.732624 91.354 -151.7977
1415.919142 91.422 -151.3607
1426.179476 91.491 -150.9210
1436.514160 91.564 -150.4835
1446.923734 91.640 -150.0530
1457.408740 91.720 -149.6337
1467.969724 91.804 -149.2284
1478.607238 91.893 -148.8386
1489.321836 91.986 -148.4646
1500.114076 92.083 -148.1057
1510.984521 92.185 -147.7601
1521.933737 92.290 -147.4252
1532.962297 92.399 -147.0979
1544.070773 92.512 -146.7751
1555.259747 92.627 -146.4540
1566.529800 92.746 -146.1332
1577.881521 92.868 -145.8121
1589.315501 92.991 -145.4915
1600.832336 93.117 -145.1726
1612.432627 93.245 -144.8571
1624.116978 93.375 -144.5460
1635.886000 93.506 -144.2406
1647.740304 93.639 -143.9413
1659.680509 93.773 -143.6492
1671.707238 93.909 -143.3650
1683.821118 94.048 -143.0903
1696.022780 94.189 -142.8265
1708.312860 94.333 -142.5743
1720.692000 94.479 -142.3338
1733.160843 94.628 -142.1047
1745.720041 94.779 -141.8861
1758.370248 94.933 -141.6778
1771.112124 95.089 -141.4797
1783.946332 95.246 -141.2923
1796.873543 95.405 -141.1156
1809.894429 95.565 -140.9499
1823.009670 95.727 -140.7955
1836.219950 95.889 -140.6533
1849.525956 96.053 -140.5256
1862.928384 96.219 -140.4156
1876.427931 96.387 -140.3275
1890.025301 96.557 -140.2656
1903.721204 96.729 -140.2345
1917.516352 96.902 -140.2383
1931.411466 97.077 -140.2803
1945.407270 97.251 -140.3637
1959.504493 97.425 -140.4910
1973.703870 97.595 -140.6641
1988.006142 97.761 -140.8841
2002.412054 97.922 -141.1512
2016.922357 98.075 -141.4646
2031.537808 98.220 -141.8230
2046.259169 98.355 -142.2243
2061.087206 98.481 -142.6667
2076.022694 98.596 -143.1476
2091.066410 98.701 -143.6653
2106.219139 98.797 -144.2182
2121.481671 98.884 -144.8057
2136.854802 98.965 -145.4278
2152.339333 99.039 -146.0857
2167.936071 99.108 -146.7808
2183.645829 99.172 -147.5148
2199.469427 99.233 -148.2886
2215.407689 99.291 -149.1022
2231.461446 99.345 -149.9537
2247.631536 99.396 -150.8398
2263.918800 99.442 -151.7557
2280.324089 99.485 -152.6960
2296.848258 99.523 -153.6548
2313.492167 99.556 -154.6261
2330.256685 99.584 -155.6049
2347.142685 99.608 -156.5866
2364.151049 99.628 -157.5683
2381.282662 99.643 -158.5480
2398.538418 99.655 -159.5250
2415.919216 99.663 -160.4995
2433.425962 99.667 -161.4717
2451.059570 99.668 -162.4422
2468.820958 99.666 -163.4109
2486.711052 99.660 -164.3771
2504.730786 99.650 -165.3385
2522.881098 99.638 -166.2915
2541.162934 99.623 -167.2316
2559.577248 99.606 -168.1542
2578.125000 99.589 -169.0550
2596.807157 99.574 -169.9317
2615.624692 99.561 -170.7835
2634.578586 99.554 -171.6121
2653.669829 99.552 -172.4203
2672.899414 99.558 -173.2119
2692.268345 99.571 -173.9899
2711.777632 99.591 -174.7565
2731.428290 99.617 -175.5123
2751.221345 99.649 -176.2564
2771.157829 99.684 -176.9867
2791.238781 99.722 -177.7000
2811.465248 99.760 -178.3924
2831.838284 99.798 -179.0603
2852.358952 99.833 -179.7007
2873.028321 99.865 179.6879
2893.847468 99.892 179.1060
2914.817480 99.914 178.5528
2935.939449 99.928 178.0265
2957.214476 99.933 177.5248
2978.643672 99.930 177.0458
3000.228152 99.915 176.5885
3021.969041 99.890 176.1534
3043.867475 99.853 175.7427
3065.924593 99.805 175.3594
3088.141547 99.746 175.0075
3110.519493 99.677 174.6902
3133.059600 99.599 174.4104
3155.763041 99.513 174.1694
3178.631001 99.422 173.9675
3201.664672 99.326 173.8044
3224.865254 99.227 173.6792
3248.233957 99.127 173.5910
3271.771999 99.025 173.5385
3295.480608 98.925 173.5199
3319.361019 98.825 173.5328
3343.414477 98.728 173.5742
3367.642236 98.633 173.6408
3392.045560 98.542 173.7303
3416.625721 98.455 173.8409
3441.383999 98.371 173.9719
3466.321686 98.293 174.1232
3491.440082 98.220 174.2940
3516.740496 98.153 174.4824
3542.224247 98.095 174.6850
3567.892664 98.045 174.8968
3593.747085 98.005 175.1118
3619.788858 97.975 175.3241
3646.019340 97.954 175.5289
3672.439900 97.943 175.7235
3699.051913 97.941 175.9067
3725.856768 97.947 176.0783
3752.855862 97.962 176.2386
3780.050603 97.984 176.3875
3807.442408 98.014 176.5238
3835.032705 98.051 176.6454
3862.822933 98.094 176.7491
3890.814540 98.142 176.8305
3919.008986 98.194 176.8855
3947.407741 98.248 176.9107
3976.012284 98.302 176.9049
4004.824108 98.354 176.8699
4033.844715 98.403 176.8113
4063.075616 98.446 176.7378
4092.518337 98.482 176.6600
4122.174412 98.513 176.5894
4152.045387 98.537 176.5363
4182.132820 98.555 176.5094
4212.438278 98.568 176.5153
4242.963342 98.577 176.5583
4273.709604 98.582 176.6410
4304.678665 98.586 176.7645
4335.872141 98.588 176.9289
4367.291658 98.588 177.1340
4398.938854 98.588 177.3792
4430.815378 98.587 177.6638
4462.922893 98.586 177.9865
4495.263072 98.585 178.3454
4527.837601 98.584 178.7375
4560.648179 98.585 179.1584
4593.696515 98.588 179.6020
4626.984334 98.593 -179.9396
4660.513370 98.601 -179.4764
4694.285371 98.614 -179.0200
4728.302098 98.633 -178.5836
4762.565324 98.657 -178.1811
4797.076835 98.687 -177.8262
4831.838432 98.722 -177.5310
4866.851925 98.763 -177.3055
4902.119140 98.807 -177.1561
4937.641916 98.855 -177.0850
4973.422105 98.903 -177.0902
5009.461572 98.951 -177.1655
5045.762195 98.998 -177.3010
5082.325868 99.043 -177.4849
5119.154496 99.086 -177.7041
5156.250000 99.127 -177.9466
5193.614313 99.168 -178.2027
5231.249383 99.209 -178.4671
5269.157173 99.252 -178.7392
5307.339658 99.299 -179.0242
5345.798829 99.350 -179.3324
5384.536691 99.406 -179.6780
5423.555263 99.466 179.9233
5462.856580 99.528 179.4557
5502.442691 99.590 178.9066
5542.315659 99.650 178.2668
5582.477563 99.704 177.5329
5622.930497 99.748 176.7068
5663.676569 99.781 175.7958
5704.717904 99.800 174.8126
5746.056642 99.801 173.7739
5787.694937 99.785 172.7007
5829.634960 99.749 171.6167
5871.878898 99.694 170.5478
5914.428953 99.619 169.5216
5957.287343 99.525 168.5668
6000.456303 99.413 167.7123
6043.938083 99.284 166.9872
6087.734950 99.141 166.4199
6131.849187 98.986 166.0378
6176.283094 98.823 165.8659
6221.038987 98.656 165.9258
6266.119200 98.489 166.2335
6311.526083 98.327 166.7976
6357.262002 98.176 167.6174
6403.329344 98.043 168.6805
6449.730508 97.933 169.9620
6496.467914 97.852 171.4243
6543.543998 97.806 173.0182
6590.961215 97.799 174.6849
6638.722037 97.835 176.3597
6686.828954 97.914 177.9760
6735.284473 98.037 179.4695
6784.091120 98.201 -179.2186
6833.251441 98.404 -178.1384
6882.767998 98.641 -177.3300
6932.643372 98.905 -176.8226
6982.880164 99.190 -176.6352
7033.480992 99.489 -176.7767
7084.448495 99.795 -177.2477
7135.785329 100.100 -178.0416
7187.494171 100.399 -179.1462
7239.577717 100.685 179.4552
7292.038681 100.953 177.7820
7344.879799 101.200 175.8559
7398.103826 101.421 173.6989
7451.713536 101.614 171.3323
7505.711724 101.778 168.7753
7560.101205 101.910 166.0436
7614.884815 102.010 163.1487
7670.065409 102.075 160.0985
7725.645865 102.104 156.8981
7781.629080 102.094 153.5523
7838.017972 102.041 150.0680
7894.815481 101.940 146.4578
7952.024569 101.786 142.7427
8009.648217 101.571 138.9558
8067.689429 101.292 135.1447
8126.151233 100.941 131.3741
8185.036674 100.516 127.7273
8244.348824 100.013 124.3087
8304.090774 99.432 121.2471
8364.265639 98.776 118.7047
8424.876556 98.049 116.8938
8485.926684 97.260 116.1124
8547.419207 96.420 116.8077
8609.357330 95.548 119.6880
8671.744282 94.668 125.8670
8734.583316 93.812 136.8088
8797.877707 93.023 153.1080
8861.630756 92.351 171.7482
8925.845785 91.841 -172.6031
8990.526143 91.529 -162.0267
9055.675202 91.423 -155.5485
9121.296357 91.504 -151.7740
9187.393031 91.733 -149.7327
9253.968668 92.066 -148.8407
9321.026740 92.461 -148.7560
9388.570742 92.884 -149.2767
9456.604196 93.309 -150.2822
9525.130648 93.718 -151.6977
9594.153671 94.098 -153.4747
9663.676863 94.436 -155.5775
9733.703850 94.724 -157.9748
9804.238280 94.954 -160.6339
9875.283832 95.120 -163.5158
9946.844210 95.214 -166.5725
10018.923143 95.231 -169.7445
10091.524390 95.167 -172.9603
10164.651736 95.020 -176.1368
10238.308993 94.790 -179.1824
10312.500000 94.479 177.9982
10387.228626 94.092 175.4980
10462.498767 93.638 173.3994
10538.314345 93.128 171.7671
10614.679315 92.576 170.6391
10691.597657 91.998 170.0203
10769.073381 91.411 169.8773
10847.110526 90.834 170.1378
10925.713161 90.282 170.6972
11004.885382 89.770 171.4305
11084.631318 89.307 172.2093
11164.955126 88.898 172.9167
11245.860993 88.542 173.4586
11327.353138 88.236 173.7672
11409.435808 87.972 173.7986
11492.113283 87.744 173.5270
11575.389873 87.546 172.9380
11659.269920 87.374 172.0218
11743.757796 87.224 170.7684
11828.857906 87.097 169.1647
11914.574686 86.992 167.1922
12000.912606 86.910 164.8269
12087.876166 86.853 162.0391
12175.469900 86.820 158.7943
12263.698373 86.810 155.0540
12352.566187 86.819 150.7770
12442.077974 86.842 145.9213
12532.238400 86.871 140.4462
12623.052165 86.897 134.3148
12714.524005 86.912 127.4979
12806.658687 86.906 119.9785
12899.461015 86.871 111.7581
12992.935827 86.800 102.8650
13087.087996 86.690 93.3616
13181.922430 86.538 83.3525
13277.444074 86.347 72.9865
13373.657907 86.121 62.4486
13470.568945 85.867 51.9421
13568.182241 85.591 41.6630
13666.502883 85.301 31.7750
13765.535996 85.005 22.3939
13865.286744 84.708 13.5841
13965.760328 84.414 5.3657
14066.961984 84.124 -2.2733
14168.896989 83.839 -9.3651
14271.570658 83.556 -15.9513
14374.988342 83.273 -22.0753
14479.155433 82.984 -27.7772
14584.077362 82.685 -33.0898
14689.759598 82.370 -38.0361
14796.207652 82.032 -42.6278
14903.427072 81.668 -46.8654
15011.423448 81.274 -50.7401
15120.202410 80.847 -54.2350
15229.769630 80.387 -57.3274
15340.130819 79.895 -59.9912
15451.291730 79.375 -62.1997
15563.258160 78.832 -63.9283
15676.035944 78.273 -65.1591
15789.630962 77.707 -65.8864
15904.049137 77.148 -66.1252
16019.296433 76.607 -65.9167
16135.378859 76.102 -65.3263
16252.302465 75.646 -64.4373
16370.073348 75.254 -63.3391
16488.697648 74.939 -62.1160
16608.181548 74.712 -60.8359
16728.531278 74.581 -59.5468
16849.753112 74.555 -58.2792
16971.853368 74.643 -57.0609
17094.838414 74.848 -55.9370
17218.714660 75.171 -54.9902
17343.488565 75.603 -54.3486
17469.166632 76.130 -54.1723
17595.755415 76.727 -54.6232
17723.261512 77.369 -55.8338
17851.691571 78.030 -57.8899
17981.052287 78.686 -60.8301
18111.350404 79.320 -64.6566
18242.592715 79.915 -69.3479
18374.786062 80.460 -74.8661
18507.937336 80.945 -81.1588
18642.053479 81.363 -88.1559
18777.141484 81.711 -95.7617
18913.208391 81.988 -103.8429
19050.261296 82.197 -112.2168
19188.307342 82.342 -120.6416
19327.353727 82.434 -128.8158
19467.407699 82.482 -136.3907
19608.476560 82.497 -143.0005
19750.567664 82.494 -148.3008
19893.688419 82.484 -152.0044
20037.846286 82.476 -153.9084
