* Measurement data measured by REW V5.31.3
* Source: EXCL: Headset (USB-C to 3.5mm Headphone Jack Adapter), MICROPHONE (Master Volume), 0, volume: 0.260
* Format: 256k Log Swept Sine, 1 sweep at -12.0 dBFS with no timing reference
* Dated: Feb 9, 2025 10:05:39 PM
* REW Settings:
*  C-weighting compensation: Off
*  Target level: 75.0 dB
* Note: ; 
* Measurement: AKG K701 R7
* Smoothing: 1/6 octave
* Frequency Step: 96 ppo
* Start Frequency: 20.0 Hz
*
* Freq(Hz) SPL(dB) Phase(degrees)
20.141602 81.240 -38.8955
20.287556 81.246 -39.2364
20.434568 81.252 -39.6908
20.582645 81.254 -40.2424
20.731796 81.248 -40.8729
20.882027 81.232 -41.5629
21.033346 81.203 -42.2934
21.185763 81.161 -43.0461
21.339284 81.106 -43.8044
21.493917 81.040 -44.5539
21.649671 80.965 -45.2827
21.806553 80.884 -45.9821
21.964572 80.800 -46.6464
22.123737 80.717 -47.2734
22.284054 80.640 -47.8639
22.445534 80.571 -48.4215
22.608183 80.513 -48.9519
22.772012 80.468 -49.4622
22.937027 80.437 -49.9597
23.103238 80.420 -50.4513
23.270654 80.417 -50.9427
23.439282 80.427 -51.4376
23.609133 80.448 -51.9377
23.780215 80.479 -52.4426
23.952536 80.518 -52.9504
24.126106 80.564 -53.4579
24.300934 80.616 -53.9612
24.477028 80.674 -54.4572
24.654399 80.736 -54.9432
24.833055 80.803 -55.4184
25.013005 80.873 -55.8836
25.194260 80.946 -56.3419
25.376828 81.022 -56.7975
25.560719 81.099 -57.2563
25.745942 81.177 -57.7246
25.932508 81.254 -58.2083
26.120426 81.328 -58.7128
26.309705 81.400 -59.2414
26.500356 81.468 -59.7961
26.692388 81.531 -60.3766
26.885812 81.589 -60.9808
27.080638 81.642 -61.6051
27.276876 81.691 -62.2450
27.474535 81.737 -62.8952
27.673627 81.780 -63.5505
27.874161 81.824 -64.2057
28.076149 81.871 -64.8565
28.279600 81.923 -65.4992
28.484526 81.984 -66.1309
28.690937 82.054 -66.7499
28.898843 82.138 -67.3555
29.108256 82.236 -67.9479
29.319186 82.349 -68.5288
29.531645 82.477 -69.1007
29.745644 82.617 -69.6670
29.961193 82.769 -70.2319
30.178304 82.927 -70.7993
30.396989 83.087 -71.3725
30.617258 83.245 -71.9538
30.839123 83.396 -72.5433
31.062596 83.534 -73.1390
31.287688 83.655 -73.7368
31.514412 83.755 -74.3306
31.742778 83.832 -74.9134
31.972800 83.885 -75.4786
32.204488 83.912 -76.0213
32.437855 83.914 -76.5395
32.672913 83.892 -77.0348
32.909674 83.848 -77.5128
33.148151 83.785 -77.9818
33.388356 83.704 -78.4519
33.630302 83.610 -78.9324
33.874001 83.504 -79.4302
34.119466 83.388 -79.9485
34.366710 83.266 -80.4860
34.615745 83.140 -81.0379
34.866585 83.014 -81.5967
35.119243 82.891 -82.1543
35.373731 82.774 -82.7037
35.630064 82.668 -83.2401
35.888254 82.575 -83.7617
36.148315 82.498 -84.2690
36.410261 82.438 -84.7641
36.674104 82.396 -85.2497
36.939860 82.372 -85.7282
37.207542 82.366 -86.2018
37.477163 82.378 -86.6725
37.748738 82.409 -87.1436
38.022281 82.458 -87.6194
38.297806 82.527 -88.1061
38.575327 82.617 -88.6105
38.854860 82.726 -89.1388
39.136419 82.856 -89.6946
39.420017 83.005 -90.2779
39.705671 83.171 -90.8840
39.993395 83.352 -91.5041
40.283203 83.546 -92.1273
40.575112 83.752 -92.7415
40.869136 83.968 -93.3367
41.165290 84.192 -93.9056
41.463591 84.422 -94.4447
41.764053 84.658 -94.9546
42.066693 84.896 -95.4391
42.371525 85.137 -95.9041
42.678567 85.379 -96.3567
42.987834 85.618 -96.8032
43.299341 85.854 -97.2484
43.613106 86.084 -97.6943
43.929145 86.306 -98.1400
44.247473 86.517 -98.5822
44.568109 86.715 -99.0159
44.891068 86.899 -99.4366
45.216367 87.066 -99.8414
45.544023 87.216 -100.2295
45.874054 87.347 -100.6031
46.206476 87.458 -100.9663
46.541307 87.550 -101.3241
46.878565 87.624 -101.6821
47.218266 87.680 -102.0455
47.560429 87.720 -102.4189
47.905072 87.745 -102.8059
48.252212 87.759 -103.2091
48.601867 87.763 -103.6287
48.954056 87.759 -104.0625
49.308798 87.747 -104.5054
49.666109 87.729 -104.9504
50.026010 87.706 -105.3897
50.388520 87.680 -105.8165
50.753656 87.652 -106.2261
51.121437 87.625 -106.6169
51.491884 87.599 -106.9894
51.865016 87.576 -107.3460
52.240851 87.558 -107.6892
52.619410 87.544 -108.0209
53.000712 87.536 -108.3421
53.384777 87.531 -108.6525
53.771625 87.530 -108.9511
54.161276 87.531 -109.2367
54.553751 87.532 -109.5076
54.949070 87.533 -109.7628
55.347254 87.532 -110.0012
55.748323 87.530 -110.2224
56.152298 87.525 -110.4263
56.559201 87.517 -110.6135
56.969052 87.507 -110.7855
57.381873 87.493 -110.9454
57.797686 87.477 -111.0981
58.216512 87.458 -111.2504
58.638373 87.437 -111.4112
59.063291 87.414 -111.5897
59.491288 87.392 -111.7949
59.922386 87.371 -112.0332
60.356608 87.352 -112.3068
60.793977 87.335 -112.6135
61.234515 87.321 -112.9467
61.678246 87.310 -113.2977
62.125192 87.303 -113.6573
62.575377 87.298 -114.0182
63.028824 87.295 -114.3759
63.485557 87.295 -114.7286
63.945599 87.297 -115.0768
64.408975 87.302 -115.4221
64.875709 87.309 -115.7661
65.345825 87.319 -116.1103
65.819348 87.331 -116.4555
66.296302 87.347 -116.8025
66.776713 87.366 -117.1521
67.260604 87.387 -117.5053
67.748002 87.410 -117.8628
68.238932 87.436 -118.2253
68.733420 87.464 -118.5928
69.231490 87.493 -118.9646
69.733170 87.523 -119.3400
70.238485 87.554 -119.7179
70.747463 87.585 -120.0972
71.260128 87.617 -120.4768
71.776508 87.649 -120.8564
72.296630 87.682 -121.2357
72.820521 87.714 -121.6152
73.348209 87.747 -121.9956
73.879720 87.780 -122.3775
74.415083 87.814 -122.7610
74.954326 87.848 -123.1459
75.497475 87.881 -123.5315
76.044561 87.914 -123.9171
76.595612 87.946 -124.3022
77.150655 87.976 -124.6867
77.709720 88.004 -125.0703
78.272837 88.030 -125.4529
78.840034 88.053 -125.8341
79.411342 88.073 -126.2130
79.986789 88.090 -126.5890
80.566406 88.103 -126.9615
81.150224 88.113 -127.3306
81.738272 88.121 -127.6965
82.330581 88.125 -128.0596
82.927182 88.129 -128.4203
83.528107 88.131 -128.7782
84.133386 88.136 -129.1328
84.743051 88.144 -129.4834
85.357134 88.158 -129.8293
85.975667 88.182 -130.1703
86.598682 88.219 -130.5065
87.226212 88.271 -130.8386
87.858289 88.344 -131.1678
88.494946 88.438 -131.4953
89.136217 88.555 -131.8222
89.782135 88.697 -132.1491
90.432733 88.861 -132.4759
91.088046 89.045 -132.8016
91.748108 89.246 -133.1251
92.412952 89.459 -133.4452
93.082615 89.678 -133.7611
93.757130 89.897 -134.0728
94.436533 90.113 -134.3810
95.120859 90.319 -134.6868
95.810144 90.513 -134.9910
96.504423 90.692 -135.2941
97.203734 90.854 -135.5962
97.908112 90.999 -135.8969
98.617595 91.127 -136.1958
99.332219 91.239 -136.4927
100.052021 91.338 -136.7874
100.777039 91.425 -137.0798
101.507311 91.502 -137.3696
102.242875 91.571 -137.6568
102.983769 91.634 -137.9419
103.730032 91.692 -138.2258
104.481702 91.745 -138.5099
105.238820 91.793 -138.7955
106.001424 91.836 -139.0830
106.769554 91.873 -139.3729
107.543250 91.902 -139.6653
108.322553 91.922 -139.9601
109.107503 91.931 -140.2570
109.898141 91.928 -140.5554
110.694508 91.912 -140.8548
111.496646 91.883 -141.1550
112.304596 91.842 -141.4563
113.118402 91.789 -141.7593
113.938104 91.727 -142.0645
114.763747 91.656 -142.3727
115.595372 91.579 -142.6848
116.433024 91.499 -143.0015
117.276746 91.416 -143.3239
118.126581 91.334 -143.6527
118.982575 91.252 -143.9886
119.844772 91.173 -144.3315
120.713217 91.096 -144.6814
121.587954 91.021 -145.0374
122.469031 90.947 -145.3986
123.356492 90.873 -145.7636
124.250384 90.797 -146.1308
125.150753 90.719 -146.4987
126.057647 90.637 -146.8656
126.971113 90.549 -147.2298
127.891198 90.454 -147.5897
128.817950 90.351 -147.9437
129.751418 90.239 -148.2903
130.691651 90.120 -148.6282
131.638696 89.994 -148.9564
132.592604 89.863 -149.2746
133.553425 89.729 -149.5827
134.521208 89.596 -149.8813
135.496004 89.466 -150.1714
136.477864 89.344 -150.4541
137.466839 89.233 -150.7305
138.462981 89.137 -151.0012
139.466340 89.059 -151.2671
140.476971 89.000 -151.5287
141.494925 88.960 -151.7865
142.520256 88.940 -152.0410
143.553016 88.937 -152.2926
144.593260 88.949 -152.5417
145.641043 88.971 -152.7888
146.696418 88.999 -153.0343
147.759441 89.029 -153.2786
148.830166 89.059 -153.5218
149.908651 89.084 -153.7643
150.994951 89.103 -154.0063
152.089123 89.114 -154.2481
153.191223 89.119 -154.4904
154.301310 89.116 -154.7336
155.419441 89.109 -154.9782
156.545674 89.097 -155.2245
157.680069 89.084 -155.4726
158.822683 89.071 -155.7222
159.973578 89.058 -155.9726
161.132813 89.049 -156.2230
162.300447 89.042 -156.4727
163.476543 89.039 -156.7212
164.661162 89.041 -156.9683
165.854364 89.046 -157.2145
167.056213 89.056 -157.4606
168.266772 89.070 -157.7079
169.486102 89.088 -157.9582
170.714268 89.112 -158.2133
171.951334 89.139 -158.4754
173.197364 89.171 -158.7467
174.452424 89.207 -159.0295
175.716578 89.246 -159.3261
176.989893 89.287 -159.6381
178.272434 89.330 -159.9668
179.564270 89.371 -160.3124
180.865467 89.410 -160.6744
182.176092 89.445 -161.0508
183.496216 89.474 -161.4383
184.825905 89.496 -161.8319
186.165229 89.510 -162.2251
187.514259 89.516 -162.6101
188.873065 89.514 -162.9787
190.241717 89.506 -163.3230
191.620287 89.491 -163.6358
193.008847 89.473 -163.9126
194.407468 89.453 -164.1512
195.816225 89.432 -164.3528
197.235190 89.412 -164.5211
198.664438 89.392 -164.6616
200.104042 89.373 -164.7810
201.554078 89.355 -164.8858
203.014622 89.336 -164.9812
204.485750 89.315 -165.0715
205.967538 89.292 -165.1583
207.460064 89.266 -165.2416
208.963405 89.236 -165.3191
210.477640 89.202 -165.3866
212.002848 89.163 -165.4389
213.539108 89.121 -165.4700
215.086500 89.075 -165.4736
216.645105 89.027 -165.4435
218.215005 88.977 -165.3745
219.796281 88.927 -165.2620
221.389015 88.877 -165.1038
222.993292 88.829 -164.8998
224.609193 88.783 -164.6530
226.236804 88.740 -164.3697
227.876209 88.701 -164.0588
229.527494 88.665 -163.7322
231.190745 88.634 -163.4033
232.866048 88.607 -163.0861
234.553491 88.584 -162.7941
236.253163 88.564 -162.5390
237.965150 88.547 -162.3299
239.689544 88.532 -162.1725
241.426433 88.520 -162.0695
243.175909 88.508 -162.0209
244.938062 88.498 -162.0241
246.712984 88.488 -162.0748
248.500768 88.479 -162.1674
250.301507 88.470 -162.2957
252.115295 88.461 -162.4532
253.942226 88.454 -162.6339
255.782396 88.447 -162.8325
257.635901 88.442 -163.0447
259.502837 88.440 -163.2670
261.383301 88.439 -163.4968
263.277392 88.442 -163.7322
265.185209 88.449 -163.9719
267.106850 88.459 -164.2145
269.042417 88.472 -164.4589
270.992009 88.489 -164.7042
272.955729 88.509 -164.9494
274.933678 88.532 -165.1939
276.925961 88.557 -165.4367
278.932681 88.583 -165.6772
280.953942 88.610 -165.9146
282.989850 88.638 -166.1480
285.040511 88.668 -166.3765
287.106032 88.698 -166.5990
289.186521 88.731 -166.8146
291.282086 88.768 -167.0228
293.392836 88.808 -167.2230
295.518881 88.854 -167.4153
297.660333 88.905 -167.5999
299.817302 88.960 -167.7771
301.989902 89.021 -167.9476
304.178245 89.084 -168.1118
306.382446 89.149 -168.2706
308.602620 89.215 -168.4242
310.838882 89.278 -168.5732
313.091348 89.338 -168.7181
315.360137 89.392 -168.8592
317.645367 89.441 -168.9969
319.947156 89.481 -169.1313
322.265625 89.514 -169.2625
324.600895 89.537 -169.3902
326.953086 89.550 -169.5143
329.322323 89.553 -169.6348
331.708729 89.546 -169.7516
334.112427 89.528 -169.8647
336.533543 89.500 -169.9743
338.972204 89.461 -170.0807
341.428536 89.414 -170.1842
343.902668 89.358 -170.2852
346.394729 89.295 -170.3841
348.904848 89.227 -170.4814
351.433156 89.155 -170.5777
353.979786 89.082 -170.6734
356.544869 89.011 -170.7693
359.128540 88.943 -170.8657
361.730934 88.882 -170.9631
364.352185 88.830 -171.0615
366.992431 88.790 -171.1612
369.651810 88.765 -171.2618
372.330459 88.756 -171.3632
375.028519 88.764 -171.4651
377.746130 88.789 -171.5670
380.483434 88.830 -171.6685
383.240574 88.887 -171.7690
386.017693 88.957 -171.8680
388.814937 89.038 -171.9646
391.632450 89.126 -172.0582
394.470380 89.219 -172.1479
397.328875 89.314 -172.2332
400.208084 89.409 -172.3136
403.108157 89.503 -172.3885
406.029245 89.593 -172.4575
408.971500 89.681 -172.5202
411.935076 89.765 -172.5762
414.920127 89.845 -172.6252
417.926810 89.923 -172.6671
420.955280 89.999 -172.7022
424.005695 90.075 -172.7310
427.078215 90.150 -172.7543
430.173000 90.226 -172.7732
433.290211 90.303 -172.7889
436.430010 90.381 -172.8021
439.592562 90.458 -172.8136
442.778031 90.535 -172.8234
445.986583 90.609 -172.8312
449.218386 90.679 -172.8366
452.473607 90.744 -172.8387
455.752418 90.802 -172.8369
459.054987 90.851 -172.8308
462.381489 90.891 -172.8203
465.732096 90.922 -172.8053
469.106983 90.942 -172.7862
472.506325 90.952 -172.7635
475.930301 90.953 -172.7375
479.379088 90.946 -172.7089
482.852867 90.932 -172.6781
486.351817 90.912 -172.6456
489.876123 90.887 -172.6124
493.425968 90.859 -172.5794
497.001536 90.827 -172.5480
500.603014 90.794 -172.5202
504.230589 90.759 -172.4979
507.884452 90.721 -172.4835
511.564792 90.683 -172.4794
515.271802 90.642 -172.4880
519.005673 90.599 -172.5114
522.766602 90.556 -172.5515
526.554785 90.511 -172.6093
530.370418 90.467 -172.6852
534.213700 90.424 -172.7781
538.084833 90.383 -172.8859
541.984018 90.347 -173.0051
545.911457 90.314 -173.1308
549.867357 90.286 -173.2577
553.851922 90.263 -173.3792
557.865362 90.245 -173.4888
561.907884 90.230 -173.5798
565.979700 90.217 -173.6457
570.081022 90.206 -173.6810
574.212064 90.195 -173.6817
578.373042 90.184 -173.6455
582.564171 90.171 -173.5726
586.785671 90.157 -173.4659
591.037762 90.142 -173.3307
595.320665 90.124 -173.1745
599.634604 90.104 -173.0058
603.979804 90.082 -172.8333
608.356491 90.058 -172.6648
612.764893 90.031 -172.5069
617.205240 90.001 -172.3644
621.677763 89.969 -172.2403
626.182696 89.936 -172.1359
630.720274 89.902 -172.0511
635.290733 89.869 -171.9848
639.894312 89.838 -171.9351
644.531250 89.810 -171.8999
649.201789 89.786 -171.8768
653.906173 89.768 -171.8637
658.644647 89.756 -171.8582
663.417457 89.750 -171.8582
668.224854 89.750 -171.8618
673.067086 89.753 -171.8675
677.944408 89.760 -171.8740
682.857073 89.768 -171.8806
687.805336 89.776 -171.8867
692.789457 89.782 -171.8920
697.809695 89.786 -171.8963
702.866312 89.785 -171.8992
707.959571 89.780 -171.9004
713.089738 89.768 -171.8994
718.257080 89.752 -171.8956
723.461867 89.729 -171.8887
728.704370 89.702 -171.8779
733.984862 89.669 -171.8626
739.303619 89.633 -171.8421
744.660918 89.593 -171.8156
750.057038 89.551 -171.7823
755.492260 89.506 -171.7417
760.966869 89.460 -171.6935
766.481148 89.413 -171.6372
772.035387 89.364 -171.5726
777.629873 89.313 -171.4993
783.264900 89.259 -171.4165
788.940760 89.201 -171.3236
794.657750 89.140 -171.2200
800.416168 89.074 -171.1053
806.216313 89.002 -170.9793
812.058489 88.925 -170.8423
817.943000 88.842 -170.6952
823.870152 88.753 -170.5389
829.840255 88.660 -170.3748
835.853619 88.563 -170.2043
841.910559 88.462 -170.0291
848.011390 88.358 -169.8509
854.156430 88.253 -169.6712
860.346000 88.149 -169.4915
866.580422 88.044 -169.3129
872.860020 87.942 -169.1362
879.185124 87.842 -168.9621
885.556062 87.747 -168.7909
891.973166 87.656 -168.6223
898.436771 87.571 -168.4560
904.947215 87.492 -168.2915
911.504835 87.421 -168.1281
918.109975 87.359 -167.9653
924.762978 87.305 -167.8022
931.464192 87.260 -167.6375
938.213966 87.225 -167.4698
945.012651 87.199 -167.2974
951.860602 87.182 -167.1182
958.758176 87.173 -166.9305
965.705733 87.172 -166.7324
972.703635 87.178 -166.5227
979.752246 87.192 -166.3003
986.851935 87.212 -166.0649
994.003071 87.237 -165.8168
1001.206027 87.270 -165.5567
1008.461179 87.308 -165.2862
1015.768904 87.354 -165.0074
1023.129584 87.407 -164.7226
1030.543603 87.468 -164.4351
1038.011347 87.538 -164.1482
1045.533205 87.616 -163.8658
1053.109569 87.704 -163.5918
1060.740836 87.801 -163.3301
1068.427401 87.905 -163.0839
1076.169666 88.015 -162.8555
1083.968035 88.129 -162.6457
1091.822915 88.245 -162.4530
1099.734713 88.360 -162.2735
1107.703844 88.471 -162.1007
1115.730723 88.576 -161.9270
1123.815768 88.675 -161.7438
1131.959400 88.766 -161.5434
1140.162045 88.850 -161.3194
1148.424129 88.925 -161.0676
1156.746083 88.995 -160.7862
1165.128342 89.059 -160.4754
1173.571343 89.120 -160.1371
1182.075524 89.179 -159.7744
1190.641331 89.238 -159.3912
1199.269209 89.298 -158.9915
1207.959608 89.359 -158.5790
1216.712981 89.423 -158.1567
1225.529785 89.489 -157.7263
1234.410479 89.558 -157.2881
1243.355526 89.627 -156.8412
1252.365393 89.698 -156.3839
1261.440549 89.768 -155.9139
1270.581467 89.839 -155.4295
1279.788624 89.909 -154.9297
1289.062500 89.978 -154.4148
1298.403578 90.047 -153.8859
1307.812346 90.115 -153.3444
1317.289293 90.184 -152.7915
1326.834914 90.252 -152.2278
1336.449707 90.321 -151.6535
1346.134173 90.391 -151.0687
1355.888816 90.462 -150.4740
1365.714145 90.535 -149.8709
1375.610673 90.611 -149.2619
1385.578915 90.690 -148.6506
1395.619391 90.772 -148.0413
1405.732624 90.857 -147.4387
1415.919142 90.945 -146.8470
1426.179476 91.036 -146.2696
1436.514160 91.130 -145.7090
1446.923734 91.228 -145.1666
1457.408740 91.331 -144.6431
1467.969724 91.437 -144.1382
1478.607238 91.549 -143.6508
1489.321836 91.665 -143.1794
1500.114076 91.788 -142.7218
1510.984521 91.916 -142.2765
1521.933737 92.051 -141.8430
1532.962297 92.192 -141.4220
1544.070773 92.339 -141.0159
1555.259747 92.492 -140.6282
1566.529800 92.649 -140.2626
1577.881521 92.811 -139.9226
1589.315501 92.975 -139.6104
1600.832336 93.142 -139.3264
1612.432627 93.309 -139.0699
1624.116978 93.477 -138.8394
1635.886000 93.647 -138.6337
1647.740304 93.817 -138.4531
1659.680509 93.988 -138.2993
1671.707238 94.160 -138.1760
1683.821118 94.333 -138.0873
1696.022780 94.506 -138.0368
1708.312860 94.679 -138.0263
1720.692000 94.850 -138.0541
1733.160843 95.018 -138.1150
1745.720041 95.183 -138.2002
1758.370248 95.344 -138.2990
1771.112124 95.503 -138.4007
1783.946332 95.659 -138.4965
1796.873543 95.814 -138.5819
1809.894429 95.969 -138.6570
1823.009670 96.127 -138.7270
1836.219950 96.286 -138.8006
1849.525956 96.448 -138.8890
1862.928384 96.613 -139.0038
1876.427931 96.780 -139.1563
1890.025301 96.947 -139.3558
1903.721204 97.114 -139.6085
1917.516352 97.278 -139.9176
1931.411466 97.438 -140.2824
1945.407270 97.592 -140.6990
1959.504493 97.738 -141.1605
1973.703870 97.874 -141.6579
1988.006142 98.000 -142.1810
2002.412054 98.114 -142.7195
2016.922357 98.218 -143.2650
2031.537808 98.311 -143.8119
2046.259169 98.394 -144.3582
2061.087206 98.468 -144.9058
2076.022694 98.533 -145.4595
2091.066410 98.592 -146.0270
2106.219139 98.643 -146.6164
2121.481671 98.688 -147.2346
2136.854802 98.726 -147.8860
2152.339333 98.756 -148.5719
2167.936071 98.780 -149.2907
2183.645829 98.798 -150.0389
2199.469427 98.809 -150.8113
2215.407689 98.814 -151.6019
2231.461446 98.814 -152.4038
2247.631536 98.810 -153.2097
2263.918800 98.802 -154.0129
2280.324089 98.792 -154.8084
2296.848258 98.780 -155.5939
2313.492167 98.768 -156.3705
2330.256685 98.755 -157.1418
2347.142685 98.744 -157.9132
2364.151049 98.731 -158.6900
2381.282662 98.718 -159.4762
2398.538418 98.703 -160.2731
2415.919216 98.684 -161.0794
2433.425962 98.661 -161.8917
2451.059570 98.633 -162.7052
2468.820958 98.600 -163.5140
2486.711052 98.561 -164.3117
2504.730786 98.518 -165.0916
2522.881098 98.471 -165.8471
2541.162934 98.421 -166.5720
2559.577248 98.370 -167.2618
2578.125000 98.319 -167.9142
2596.807157 98.271 -168.5293
2615.624692 98.227 -169.1090
2634.578586 98.189 -169.6561
2653.669829 98.158 -170.1723
2672.899414 98.133 -170.6580
2692.268345 98.117 -171.1113
2711.777632 98.108 -171.5290
2731.428290 98.108 -171.9072
2751.221345 98.116 -172.2420
2771.157829 98.132 -172.5312
2791.238781 98.157 -172.7743
2811.465248 98.189 -172.9740
2831.838284 98.227 -173.1356
2852.358952 98.271 -173.2669
2873.028321 98.317 -173.3763
2893.847468 98.365 -173.4717
2914.817480 98.411 -173.5587
2935.939449 98.453 -173.6406
2957.214476 98.489 -173.7180
2978.643672 98.517 -173.7903
3000.228152 98.538 -173.8559
3021.969041 98.549 -173.9125
3043.867475 98.551 -173.9579
3065.924593 98.545 -173.9901
3088.141547 98.532 -174.0081
3110.519493 98.512 -174.0124
3133.059600 98.487 -174.0050
3155.763041 98.458 -173.9883
3178.631001 98.425 -173.9653
3201.664672 98.390 -173.9377
3224.865254 98.353 -173.9071
3248.233957 98.315 -173.8739
3271.771999 98.278 -173.8390
3295.480608 98.240 -173.8037
3319.361019 98.204 -173.7704
3343.414477 98.170 -173.7422
3367.642236 98.137 -173.7230
3392.045560 98.106 -173.7164
3416.625721 98.077 -173.7254
3441.383999 98.049 -173.7515
3466.321686 98.022 -173.7940
3491.440082 97.996 -173.8503
3516.740496 97.970 -173.9159
3542.224247 97.944 -173.9854
3567.892664 97.921 -174.0532
3593.747085 97.899 -174.1148
3619.788858 97.881 -174.1676
3646.019340 97.866 -174.2109
3672.439900 97.857 -174.2462
3699.051913 97.853 -174.2760
3725.856768 97.854 -174.3020
3752.855862 97.859 -174.3249
3780.050603 97.869 -174.3434
3807.442408 97.882 -174.3548
3835.032705 97.899 -174.3564
3862.822933 97.920 -174.3468
3890.814540 97.944 -174.3264
3919.008986 97.971 -174.2981
3947.407741 98.002 -174.2658
3976.012284 98.034 -174.2331
4004.824108 98.066 -174.2025
4033.844715 98.099 -174.1741
4063.075616 98.129 -174.1460
4092.518337 98.156 -174.1144
4122.174412 98.180 -174.0740
4152.045387 98.200 -174.0184
4182.132820 98.216 -173.9413
4212.438278 98.228 -173.8364
4242.963342 98.236 -173.6988
4273.709604 98.241 -173.5246
4304.678665 98.244 -173.3114
4335.872141 98.245 -173.0574
4367.291658 98.244 -172.7620
4398.938854 98.243 -172.4246
4430.815378 98.240 -172.0451
4462.922893 98.237 -171.6239
4495.263072 98.233 -171.1613
4527.837601 98.230 -170.6584
4560.648179 98.226 -170.1172
4593.696515 98.225 -169.5410
4626.984334 98.225 -168.9351
4660.513370 98.229 -168.3063
4694.285371 98.237 -167.6631
4728.302098 98.251 -167.0158
4762.565324 98.272 -166.3756
4797.076835 98.301 -165.7551
4831.838432 98.340 -165.1672
4866.851925 98.388 -164.6249
4902.119140 98.446 -164.1408
4937.641916 98.513 -163.7263
4973.422105 98.590 -163.3911
5009.461572 98.673 -163.1423
5045.762195 98.761 -162.9832
5082.325868 98.853 -162.9131
5119.154496 98.946 -162.9268
5156.250000 99.037 -163.0151
5193.614313 99.126 -163.1656
5231.249383 99.211 -163.3637
5269.157173 99.291 -163.5950
5307.339658 99.368 -163.8459
5345.798829 99.441 -164.1060
5384.536691 99.513 -164.3691
5423.555263 99.584 -164.6335
5462.856580 99.656 -164.9020
5502.442691 99.731 -165.1813
5542.315659 99.809 -165.4806
5582.477563 99.890 -165.8101
5622.930497 99.976 -166.1803
5663.676569 100.065 -166.6002
5704.717904 100.156 -167.0773
5746.056642 100.250 -167.6170
5787.694937 100.344 -168.2219
5829.634960 100.438 -168.8921
5871.878898 100.529 -169.6248
5914.428953 100.615 -170.4143
5957.287343 100.694 -171.2520
6000.456303 100.765 -172.1264
6043.938083 100.825 -173.0233
6087.734950 100.873 -173.9258
6131.849187 100.905 -174.8147
6176.283094 100.922 -175.6696
6221.038987 100.923 -176.4691
6266.119200 100.908 -177.1918
6311.526083 100.877 -177.8177
6357.262002 100.833 -178.3289
6403.329344 100.778 -178.7111
6449.730508 100.715 -178.9543
6496.467914 100.649 -179.0542
6543.543998 100.586 -179.0136
6590.961215 100.529 -178.8427
6638.722037 100.487 -178.5599
6686.828954 100.464 -178.1917
6735.284473 100.466 -177.7722
6784.091120 100.498 -177.3418
6833.251441 100.564 -176.9455
6882.767998 100.666 -176.6305
6932.643372 100.804 -176.4439
6982.880164 100.975 -176.4301
7033.480992 101.177 -176.6286
7084.448495 101.402 -177.0721
7135.785329 101.645 -177.7853
7187.494171 101.898 -178.7840
7239.577717 102.153 179.9245
7292.038681 102.401 178.3412
7344.879799 102.636 176.4740
7398.103826 102.851 174.3369
7451.713536 103.039 171.9481
7505.711724 103.195 169.3281
7560.101205 103.316 166.4990
7614.884815 103.397 163.4831
7670.065409 103.435 160.3024
7725.645865 103.426 156.9794
7781.629080 103.367 153.5368
7838.017972 103.255 149.9997
7894.815481 103.087 146.3968
7952.024569 102.858 142.7621
8009.648217 102.567 139.1368
8067.689429 102.209 135.5711
8126.151233 101.782 132.1244
8185.036674 101.285 128.8670
8244.348824 100.719 125.8808
8304.090774 100.083 123.2627
8364.265639 99.382 121.1304
8424.876556 98.620 119.6328
8485.926684 97.803 118.9700
8547.419207 96.943 119.4244
8609.357330 96.054 121.4089
8671.744282 95.158 125.5265
8734.583316 94.285 132.5780
8797.877707 93.476 143.2849
8861.630756 92.781 157.3306
8925.845785 92.252 172.3499
8990.526143 91.928 -174.7655
9055.675202 91.825 -165.4058
9121.296357 91.924 -159.2492
9187.393031 92.184 -155.4825
9253.968668 92.554 -153.4087
9321.026740 92.987 -152.5454
9388.570742 93.445 -152.5778
9456.604196 93.898 -153.3006
9525.130648 94.327 -154.5762
9594.153671 94.716 -156.3078
9663.676863 95.056 -158.4221
9733.703850 95.338 -160.8580
9804.238280 95.556 -163.5605
9875.283832 95.707 -166.4758
9946.844210 95.786 -169.5490
10018.923143 95.793 -172.7239
10091.524390 95.727 -175.9426
10164.651736 95.589 -179.1471
10238.308993 95.381 177.7188
10312.500000 95.109 174.7078
10387.228626 94.776 171.8667
10462.498767 94.389 169.2354
10538.314345 93.956 166.8454
10614.679315 93.482 164.7194
10691.597657 92.977 162.8712
10769.073381 92.447 161.3055
10847.110526 91.900 160.0185
10925.713161 91.342 158.9982
11004.885382 90.780 158.2252
11084.631318 90.218 157.6732
11164.955126 89.661 157.3104
11245.860993 89.111 157.1010
11327.353138 88.570 157.0075
11409.435808 88.040 156.9926
11492.113283 87.520 157.0225
11575.389873 87.009 157.0690
11659.269920 86.507 157.1119
11743.757796 86.012 157.1396
11828.857906 85.524 157.1490
11914.574686 85.043 157.1435
12000.912606 84.572 157.1289
12087.876166 84.116 157.1081
12175.469900 83.681 157.0729
12263.698373 83.279 156.9977
12352.566187 82.919 156.8333
12442.077974 82.615 156.5056
12532.238400 82.374 155.9202
12623.052165 82.203 154.9721
12714.524005 82.099 153.5589
12806.658687 82.055 151.5935
12899.461015 82.059 149.0126
12992.935827 82.094 145.7802
13087.087996 82.147 141.8860
13181.922430 82.205 137.3414
13277.444074 82.262 132.1738
13373.657907 82.313 126.4211
13470.568945 82.359 120.1286
13568.182241 82.403 113.3472
13666.502883 82.450 106.1337
13765.535996 82.504 98.5516
13865.286744 82.570 90.6723
13965.760328 82.647 82.5732
14066.961984 82.736 74.3350
14168.896989 82.833 66.0362
14271.570658 82.932 57.7491
14374.988342 83.026 49.5356
14479.155433 83.108 41.4454
14584.077362 83.173 33.5156
14689.759598 83.214 25.7723
14796.207652 83.227 18.2318
14903.427072 83.210 10.9026
15011.423448 83.160 3.7880
15120.202410 83.074 -3.1108
15229.769630 82.950 -9.7906
15340.130819 82.786 -16.2413
15451.291730 82.579 -22.4396
15563.258160 82.325 -28.3417
15676.035944 82.024 -33.8735
15789.630962 81.675 -38.9183
15904.049137 81.283 -43.2971
16019.296433 80.858 -46.7385
16135.378859 80.420 -48.8317
16252.302465 79.998 -48.9662
16370.073348 79.636 -46.3024
16488.697648 79.388 -39.9850
16608.181548 79.306 -30.0476
16728.531278 79.432 -18.6581
16849.753112 79.776 -9.1508
16971.853368 80.316 -3.2424
17094.838414 81.010 -0.7073
17218.714660 81.810 -0.7030
17343.488565 82.672 -2.5011
17469.166632 83.561 -5.6154
17595.755415 84.450 -9.7526
17723.261512 85.320 -14.7476
17851.691571 86.155 -20.5155
17981.052287 86.942 -27.0200
18111.350404 87.670 -34.2509
18242.592715 88.330 -42.2086
18374.786062 88.911 -50.8921
18507.937336 89.408 -60.2855
18642.053479 89.815 -70.3436
18777.141484 90.131 -80.9753
18913.208391 90.360 -92.0253
19050.261296 90.507 -103.2582
19188.307342 90.584 -114.3516
19327.353727 90.603 -124.9076
19467.407699 90.581 -134.4902
19608.476560 90.534 -142.6809
19750.567664 90.480 -149.1256
19893.688419 90.433 -153.5615
20037.846286 90.406 -155.8201
