* Measurement data measured by REW V5.31.3
* Source: EXCL: Headset (USB-C to 3.5mm Headphone Jack Adapter), MICROPHONE (Master Volume), 0, volume: 0.260
* Format: 256k Log Swept Sine, 1 sweep at -12.0 dBFS with no timing reference
* Dated: Feb 9, 2025 9:58:33 PM
* REW Settings:
*  C-weighting compensation: Off
*  Target level: 75.0 dB
* Note: ; 
* Measurement: AKG K701 L3
* Smoothing: 1/6 octave
* Frequency Step: 96 ppo
* Start Frequency: 20.0 Hz
*
* Freq(Hz) SPL(dB) Phase(degrees)
20.141602 83.921 -45.2662
20.287556 83.925 -45.5156
20.434568 83.928 -45.8487
20.582645 83.929 -46.2549
20.731796 83.923 -46.7223
20.882027 83.909 -47.2389
21.033346 83.886 -47.7935
21.185763 83.852 -48.3760
21.339284 83.806 -48.9778
21.493917 83.751 -49.5917
21.649671 83.687 -50.2126
21.806553 83.615 -50.8367
21.964572 83.538 -51.4617
22.123737 83.459 -52.0867
22.284054 83.380 -52.7112
22.445534 83.303 -53.3356
22.608183 83.230 -53.9603
22.772012 83.164 -54.5853
22.937027 83.105 -55.2104
23.103238 83.057 -55.8344
23.270654 83.019 -56.4558
23.439282 82.992 -57.0721
23.609133 82.979 -57.6810
23.780215 82.979 -58.2801
23.952536 82.993 -58.8673
24.126106 83.021 -59.4419
24.300934 83.064 -60.0043
24.477028 83.120 -60.5565
24.654399 83.189 -61.1018
24.833055 83.268 -61.6452
25.013005 83.356 -62.1923
25.194260 83.451 -62.7492
25.376828 83.548 -63.3214
25.560719 83.645 -63.9136
25.745942 83.740 -64.5286
25.932508 83.829 -65.1674
26.120426 83.911 -65.8285
26.309705 83.984 -66.5086
26.500356 84.047 -67.2025
26.692388 84.100 -67.9040
26.885812 84.145 -68.6069
27.080638 84.181 -69.3051
27.276876 84.213 -69.9943
27.474535 84.241 -70.6718
27.673627 84.270 -71.3373
27.874161 84.302 -71.9924
28.076149 84.340 -72.6405
28.279600 84.388 -73.2856
28.484526 84.448 -73.9316
28.690937 84.522 -74.5810
28.898843 84.610 -75.2349
29.108256 84.713 -75.8917
29.319186 84.831 -76.5482
29.531645 84.963 -77.1994
29.745644 85.107 -77.8396
29.961193 85.260 -78.4638
30.178304 85.420 -79.0678
30.396989 85.582 -79.6500
30.617258 85.744 -80.2110
30.839123 85.900 -80.7538
31.062596 86.047 -81.2837
31.287688 86.179 -81.8071
31.514412 86.294 -82.3311
31.742778 86.387 -82.8621
31.972800 86.455 -83.4055
32.204488 86.496 -83.9650
32.437855 86.509 -84.5424
32.672913 86.493 -85.1378
32.909674 86.449 -85.7497
33.148151 86.379 -86.3752
33.388356 86.285 -87.0109
33.630302 86.170 -87.6525
33.874001 86.038 -88.2960
34.119466 85.892 -88.9371
34.366710 85.739 -89.5723
34.615745 85.581 -90.1983
34.866585 85.422 -90.8129
35.119243 85.268 -91.4143
35.373731 85.122 -92.0015
35.630064 84.987 -92.5741
35.888254 84.866 -93.1320
36.148315 84.761 -93.6758
36.410261 84.675 -94.2063
36.674104 84.609 -94.7251
36.939860 84.564 -95.2340
37.207542 84.542 -95.7355
37.477163 84.543 -96.2323
37.748738 84.567 -96.7273
38.022281 84.613 -97.2229
38.297806 84.681 -97.7210
38.575327 84.770 -98.2228
38.854860 84.877 -98.7285
39.136419 85.003 -99.2377
39.420017 85.146 -99.7494
39.705671 85.303 -100.2625
39.993395 85.475 -100.7758
40.283203 85.660 -101.2883
40.575112 85.856 -101.7995
40.869136 86.064 -102.3093
41.165290 86.280 -102.8182
41.463591 86.505 -103.3273
41.764053 86.737 -103.8380
42.066693 86.973 -104.3518
42.371525 87.212 -104.8695
42.678567 87.451 -105.3912
42.987834 87.687 -105.9160
43.299341 87.920 -106.4419
43.613106 88.145 -106.9662
43.929145 88.361 -107.4864
44.247473 88.567 -108.0003
44.568109 88.760 -108.5063
44.891068 88.939 -109.0040
45.216367 89.102 -109.4931
45.544023 89.249 -109.9741
45.874054 89.378 -110.4476
46.206476 89.491 -110.9147
46.541307 89.585 -111.3766
46.878565 89.662 -111.8346
47.218266 89.721 -112.2897
47.560429 89.763 -112.7414
47.905072 89.789 -113.1879
48.252212 89.799 -113.6259
48.601867 89.795 -114.0514
48.954056 89.778 -114.4605
49.308798 89.751 -114.8507
49.666109 89.715 -115.2213
50.026010 89.674 -115.5734
50.388520 89.629 -115.9098
50.753656 89.583 -116.2343
51.121437 89.538 -116.5514
51.491884 89.496 -116.8663
51.865016 89.457 -117.1838
52.240851 89.422 -117.5085
52.619410 89.390 -117.8426
53.000712 89.362 -118.1862
53.384777 89.337 -118.5363
53.771625 89.313 -118.8879
54.161276 89.290 -119.2359
54.553751 89.268 -119.5768
54.949070 89.247 -119.9094
55.347254 89.228 -120.2352
55.748323 89.209 -120.5574
56.152298 89.190 -120.8791
56.559201 89.171 -121.2026
56.969052 89.151 -121.5287
57.381873 89.131 -121.8561
57.797686 89.110 -122.1824
58.216512 89.087 -122.5040
58.638373 89.062 -122.8167
59.063291 89.035 -123.1161
59.491288 89.006 -123.3981
59.922386 88.973 -123.6597
60.356608 88.938 -123.8999
60.793977 88.901 -124.1199
61.234515 88.861 -124.3236
61.678246 88.822 -124.5169
62.125192 88.783 -124.7063
62.575377 88.746 -124.8980
63.028824 88.712 -125.0968
63.485557 88.682 -125.3058
63.945599 88.656 -125.5259
64.408975 88.634 -125.7568
64.875709 88.618 -125.9968
65.345825 88.606 -126.2440
65.819348 88.599 -126.4970
66.296302 88.597 -126.7552
66.776713 88.600 -127.0189
67.260604 88.608 -127.2895
67.748002 88.619 -127.5684
68.238932 88.634 -127.8568
68.733420 88.652 -128.1552
69.231490 88.672 -128.4635
69.733170 88.695 -128.7805
70.238485 88.719 -129.1048
70.747463 88.745 -129.4344
71.260128 88.772 -129.7678
71.776508 88.801 -130.1037
72.296630 88.830 -130.4415
72.820521 88.860 -130.7811
73.348209 88.891 -131.1227
73.879720 88.923 -131.4665
74.415083 88.955 -131.8126
74.954326 88.986 -132.1610
75.497475 89.017 -132.5117
76.044561 89.046 -132.8646
76.595612 89.074 -133.2195
77.150655 89.100 -133.5762
77.709720 89.124 -133.9344
78.272837 89.145 -134.2941
78.840034 89.162 -134.6549
79.411342 89.176 -135.0166
79.986789 89.186 -135.3790
80.566406 89.192 -135.7419
81.150224 89.193 -136.1053
81.738272 89.191 -136.4694
82.330581 89.186 -136.8341
82.927182 89.179 -137.1991
83.528107 89.172 -137.5637
84.133386 89.166 -137.9269
84.743051 89.164 -138.2875
85.357134 89.169 -138.6444
85.975667 89.184 -138.9970
86.598682 89.212 -139.3448
87.226212 89.256 -139.6880
87.858289 89.320 -140.0270
88.494946 89.406 -140.3627
89.136217 89.516 -140.6960
89.782135 89.649 -141.0277
90.432733 89.805 -141.3584
91.088046 89.981 -141.6884
91.748108 90.173 -142.0172
92.412952 90.377 -142.3438
93.082615 90.587 -142.6672
93.757130 90.798 -142.9859
94.436533 91.004 -143.2989
95.120859 91.201 -143.6055
95.810144 91.385 -143.9053
96.504423 91.554 -144.1989
97.203734 91.705 -144.4868
97.908112 91.838 -144.7705
98.617595 91.953 -145.0512
99.332219 92.052 -145.3303
100.052021 92.136 -145.6088
100.777039 92.209 -145.8874
101.507311 92.272 -146.1659
102.242875 92.327 -146.4438
102.983769 92.377 -146.7197
103.730032 92.423 -146.9921
104.481702 92.465 -147.2595
105.238820 92.503 -147.5212
106.001424 92.535 -147.7773
106.769554 92.562 -148.0283
107.543250 92.579 -148.2753
108.322553 92.587 -148.5191
109.107503 92.582 -148.7602
109.898141 92.564 -148.9986
110.694508 92.532 -149.2339
111.496646 92.487 -149.4655
112.304596 92.428 -149.6930
113.118402 92.357 -149.9163
113.938104 92.276 -150.1362
114.763747 92.188 -150.3538
115.595372 92.094 -150.5705
116.433024 91.997 -150.7878
117.276746 91.899 -151.0066
118.126581 91.802 -151.2277
118.982575 91.708 -151.4513
119.844772 91.616 -151.6772
120.713217 91.528 -151.9050
121.587954 91.443 -152.1340
122.469031 91.360 -152.3636
123.356492 91.278 -152.5929
124.250384 91.195 -152.8214
125.150753 91.110 -153.0485
126.057647 91.022 -153.2739
126.971113 90.929 -153.4973
127.891198 90.830 -153.7188
128.817950 90.726 -153.9386
129.751418 90.614 -154.1570
130.691651 90.497 -154.3745
131.638696 90.374 -154.5915
132.592604 90.247 -154.8085
133.553425 90.119 -155.0257
134.521208 89.992 -155.2429
135.496004 89.869 -155.4598
136.477864 89.754 -155.6761
137.466839 89.651 -155.8913
138.462981 89.562 -156.1050
139.466340 89.491 -156.3173
140.476971 89.438 -156.5280
141.494925 89.404 -156.7376
142.520256 89.388 -156.9462
143.553016 89.389 -157.1540
144.593260 89.403 -157.3613
145.641043 89.426 -157.5683
146.696418 89.454 -157.7753
147.759441 89.485 -157.9825
148.830166 89.513 -158.1898
149.908651 89.537 -158.3972
150.994951 89.554 -158.6041
152.089123 89.564 -158.8106
153.191223 89.566 -159.0167
154.301310 89.562 -159.2230
155.419441 89.553 -159.4300
156.545674 89.540 -159.6384
157.680069 89.526 -159.8489
158.822683 89.511 -160.0617
159.973578 89.498 -160.2771
161.132813 89.487 -160.4956
162.300447 89.479 -160.7173
163.476543 89.474 -160.9424
164.661162 89.472 -161.1710
165.854364 89.474 -161.4027
167.056213 89.478 -161.6369
168.266772 89.486 -161.8728
169.486102 89.496 -162.1089
170.714268 89.509 -162.3437
171.951334 89.526 -162.5757
173.197364 89.545 -162.8033
174.452424 89.568 -163.0253
175.716578 89.594 -163.2404
176.989893 89.623 -163.4475
178.272434 89.653 -163.6457
179.564270 89.685 -163.8345
180.865467 89.716 -164.0137
182.176092 89.747 -164.1831
183.496216 89.777 -164.3427
184.825905 89.805 -164.4928
186.165229 89.830 -164.6342
187.514259 89.853 -164.7679
188.873065 89.875 -164.8955
190.241717 89.895 -165.0190
191.620287 89.914 -165.1408
193.008847 89.934 -165.2631
194.407468 89.953 -165.3878
195.816225 89.974 -165.5161
197.235190 89.994 -165.6486
198.664438 90.015 -165.7853
200.104042 90.035 -165.9259
201.554078 90.054 -166.0699
203.014622 90.070 -166.2166
204.485750 90.084 -166.3655
205.967538 90.095 -166.5157
207.460064 90.103 -166.6664
208.963405 90.106 -166.8170
210.477640 90.106 -166.9667
212.002848 90.102 -167.1151
213.539108 90.095 -167.2620
215.086500 90.086 -167.4073
216.645105 90.074 -167.5508
218.215005 90.060 -167.6927
219.796281 90.043 -167.8331
221.389015 90.025 -167.9719
222.993292 90.004 -168.1093
224.609193 89.980 -168.2455
226.236804 89.953 -168.3806
227.876209 89.921 -168.5145
229.527494 89.884 -168.6471
231.190745 89.841 -168.7784
232.866048 89.794 -168.9085
234.553491 89.741 -169.0376
236.253163 89.684 -169.1662
237.965150 89.623 -169.2945
239.689544 89.559 -169.4230
241.426433 89.494 -169.5515
243.175909 89.427 -169.6799
244.938062 89.361 -169.8079
246.712984 89.296 -169.9348
248.500768 89.233 -170.0602
250.301507 89.173 -170.1838
252.115295 89.116 -170.3055
253.942226 89.063 -170.4257
255.782396 89.015 -170.5450
257.635901 88.973 -170.6642
259.502837 88.936 -170.7840
261.383301 88.906 -170.9045
263.277392 88.881 -171.0257
265.185209 88.863 -171.1472
267.106850 88.850 -171.2687
269.042417 88.844 -171.3898
270.992009 88.842 -171.5105
272.955729 88.846 -171.6309
274.933678 88.854 -171.7511
276.925961 88.865 -171.8709
278.932681 88.879 -171.9902
280.953942 88.895 -172.1086
282.989850 88.914 -172.2257
285.040511 88.935 -172.3409
287.106032 88.959 -172.4538
289.186521 88.986 -172.5640
291.282086 89.017 -172.6714
293.392836 89.053 -172.7759
295.518881 89.095 -172.8773
297.660333 89.142 -172.9758
299.817302 89.194 -173.0714
301.989902 89.251 -173.1641
304.178245 89.312 -173.2541
306.382446 89.375 -173.3416
308.602620 89.438 -173.4268
310.838882 89.500 -173.5101
313.091348 89.558 -173.5917
315.360137 89.611 -173.6717
317.645367 89.658 -173.7505
319.947156 89.698 -173.8283
322.265625 89.730 -173.9056
324.600895 89.752 -173.9826
326.953086 89.765 -174.0594
329.322323 89.768 -174.1363
331.708729 89.760 -174.2132
334.112427 89.742 -174.2900
336.533543 89.714 -174.3665
338.972204 89.676 -174.4427
341.428536 89.628 -174.5182
343.902668 89.572 -174.5928
346.394729 89.508 -174.6665
348.904848 89.439 -174.7391
351.433156 89.366 -174.8108
353.979786 89.292 -174.8816
356.544869 89.219 -174.9517
359.128540 89.149 -175.0211
361.730934 89.086 -175.0897
364.352185 89.032 -175.1572
366.992431 88.991 -175.2232
369.651810 88.964 -175.2872
372.330459 88.954 -175.3489
375.028519 88.961 -175.4079
377.746130 88.986 -175.4642
380.483434 89.028 -175.5177
383.240574 89.085 -175.5688
386.017693 89.156 -175.6178
388.814937 89.239 -175.6653
391.632450 89.329 -175.7119
394.470380 89.426 -175.7581
397.328875 89.526 -175.8046
400.208084 89.626 -175.8515
403.108157 89.726 -175.8993
406.029245 89.824 -175.9480
408.971500 89.918 -175.9978
411.935076 90.010 -176.0489
414.920127 90.098 -176.1013
417.926810 90.183 -176.1553
420.955280 90.266 -176.2108
424.005695 90.347 -176.2680
427.078215 90.428 -176.3268
430.173000 90.508 -176.3870
433.290211 90.588 -176.4485
436.430010 90.668 -176.5110
439.592562 90.746 -176.5744
442.778031 90.823 -176.6386
445.986583 90.897 -176.7034
449.218386 90.966 -176.7688
452.473607 91.029 -176.8347
455.752418 91.085 -176.9009
459.054987 91.131 -176.9670
462.381489 91.166 -177.0324
465.732096 91.190 -177.0963
469.106983 91.203 -177.1579
472.506325 91.204 -177.2159
475.930301 91.194 -177.2688
479.379088 91.173 -177.3147
482.852867 91.143 -177.3515
486.351817 91.105 -177.3769
489.876123 91.059 -177.3884
493.425968 91.008 -177.3839
497.001536 90.953 -177.3615
500.603014 90.894 -177.3200
504.230589 90.833 -177.2594
507.884452 90.769 -177.1809
511.564792 90.705 -177.0866
515.271802 90.641 -176.9800
519.005673 90.577 -176.8651
522.766602 90.515 -176.7464
526.554785 90.456 -176.6281
530.370418 90.401 -176.5141
534.213700 90.352 -176.4075
538.084833 90.311 -176.3110
541.984018 90.278 -176.2265
545.911457 90.256 -176.1558
549.867357 90.244 -176.1004
553.851922 90.242 -176.0615
557.865362 90.248 -176.0399
561.907884 90.262 -176.0356
565.979700 90.281 -176.0476
570.081022 90.302 -176.0743
574.212064 90.323 -176.1138
578.373042 90.342 -176.1639
582.564171 90.357 -176.2226
586.785671 90.366 -176.2882
591.037762 90.368 -176.3590
595.320665 90.361 -176.4338
599.634604 90.345 -176.5114
603.979804 90.320 -176.5908
608.356491 90.286 -176.6707
612.764893 90.243 -176.7496
617.205240 90.191 -176.8259
621.677763 90.131 -176.8974
626.182696 90.065 -176.9615
630.720274 89.993 -177.0154
635.290733 89.918 -177.0553
639.894312 89.841 -177.0768
644.531250 89.764 -177.0748
649.201789 89.689 -177.0433
653.906173 89.617 -176.9759
658.644647 89.550 -176.8663
663.417457 89.490 -176.7085
668.224854 89.437 -176.4982
673.067086 89.392 -176.2336
677.944408 89.356 -175.9162
682.857073 89.328 -175.5515
687.805336 89.310 -175.1497
692.789457 89.300 -174.7245
697.809695 89.297 -174.2918
702.866312 89.301 -173.8680
707.959571 89.309 -173.4676
713.089738 89.319 -173.1020
718.257080 89.329 -172.7780
723.461867 89.338 -172.4983
728.704370 89.345 -172.2616
733.984862 89.347 -172.0637
739.303619 89.346 -171.8989
744.660918 89.341 -171.7608
750.057038 89.332 -171.6433
755.492260 89.319 -171.5407
760.966869 89.304 -171.4485
766.481148 89.285 -171.3629
772.035387 89.263 -171.2810
777.629873 89.238 -171.2008
783.264900 89.209 -171.1208
788.940760 89.176 -171.0403
794.657750 89.137 -170.9589
800.416168 89.093 -170.8767
806.216313 89.042 -170.7940
812.058489 88.985 -170.7112
817.943000 88.921 -170.6290
823.870152 88.851 -170.5480
829.840255 88.774 -170.4685
835.853619 88.690 -170.3907
841.910559 88.602 -170.3142
848.011390 88.509 -170.2383
854.156430 88.412 -170.1617
860.346000 88.313 -170.0829
866.580422 88.213 -170.0004
872.860020 88.112 -169.9125
879.185124 88.012 -169.8179
885.556062 87.915 -169.7156
891.973166 87.822 -169.6049
898.436771 87.734 -169.4855
904.947215 87.652 -169.3579
911.504835 87.577 -169.2228
918.109975 87.511 -169.0812
924.762978 87.455 -168.9346
931.464192 87.408 -168.7838
938.213966 87.372 -168.6295
945.012651 87.345 -168.4720
951.860602 87.327 -168.3105
958.758176 87.318 -168.1438
965.705733 87.316 -167.9701
972.703635 87.321 -167.7871
979.752246 87.332 -167.5924
986.851935 87.349 -167.3836
994.003071 87.371 -167.1591
1001.206027 87.399 -166.9178
1008.461179 87.432 -166.6600
1015.768904 87.471 -166.3865
1023.129584 87.517 -166.0992
1030.543603 87.571 -165.8006
1038.011347 87.634 -165.4930
1045.533205 87.706 -165.1791
1053.109569 87.787 -164.8611
1060.740836 87.878 -164.5405
1068.427401 87.978 -164.2186
1076.169666 88.086 -163.8965
1083.968035 88.201 -163.5756
1091.822915 88.321 -163.2579
1099.734713 88.445 -162.9462
1107.703844 88.570 -162.6436
1115.730723 88.694 -162.3529
1123.815768 88.815 -162.0759
1131.959400 88.931 -161.8124
1140.162045 89.039 -161.5598
1148.424129 89.139 -161.3141
1156.746083 89.231 -161.0699
1165.128342 89.316 -160.8216
1173.571343 89.394 -160.5643
1182.075524 89.468 -160.2941
1190.641331 89.539 -160.0083
1199.269209 89.608 -159.7055
1207.959608 89.678 -159.3852
1216.712981 89.748 -159.0477
1225.529785 89.821 -158.6940
1234.410479 89.897 -158.3259
1243.355526 89.974 -157.9455
1252.365393 90.053 -157.5553
1261.440549 90.134 -157.1579
1270.581467 90.215 -156.7558
1279.788624 90.296 -156.3511
1289.062500 90.375 -155.9455
1298.403578 90.454 -155.5400
1307.812346 90.531 -155.1353
1317.289293 90.606 -154.7311
1326.834914 90.679 -154.3270
1336.449707 90.752 -153.9224
1346.134173 90.823 -153.5169
1355.888816 90.894 -153.1103
1365.714145 90.965 -152.7033
1375.610673 91.035 -152.2971
1385.578915 91.106 -151.8933
1395.619391 91.176 -151.4939
1405.732624 91.247 -151.1006
1415.919142 91.317 -150.7143
1426.179476 91.387 -150.3355
1436.514160 91.457 -149.9636
1446.923734 91.528 -149.5968
1457.408740 91.600 -149.2327
1467.969724 91.675 -148.8681
1478.607238 91.752 -148.5003
1489.321836 91.834 -148.1271
1500.114076 91.921 -147.7480
1510.984521 92.013 -147.3638
1521.933737 92.112 -146.9767
1532.962297 92.218 -146.5900
1544.070773 92.329 -146.2070
1555.259747 92.445 -145.8307
1566.529800 92.566 -145.4636
1577.881521 92.691 -145.1072
1589.315501 92.818 -144.7624
1600.832336 92.947 -144.4301
1612.432627 93.078 -144.1107
1624.116978 93.210 -143.8044
1635.886000 93.342 -143.5106
1647.740304 93.474 -143.2275
1659.680509 93.608 -142.9527
1671.707238 93.742 -142.6837
1683.821118 93.877 -142.4185
1696.022780 94.015 -142.1571
1708.312860 94.155 -141.9011
1720.692000 94.299 -141.6536
1733.160843 94.445 -141.4174
1745.720041 94.594 -141.1938
1758.370248 94.744 -140.9819
1771.112124 94.896 -140.7792
1783.946332 95.050 -140.5828
1796.873543 95.205 -140.3907
1809.894429 95.362 -140.2030
1823.009670 95.521 -140.0217
1836.219950 95.683 -139.8507
1849.525956 95.847 -139.6957
1862.928384 96.013 -139.5635
1876.427931 96.182 -139.4612
1890.025301 96.353 -139.3953
1903.721204 96.525 -139.3700
1917.516352 96.697 -139.3871
1931.411466 96.868 -139.4459
1945.407270 97.036 -139.5442
1959.504493 97.202 -139.6791
1973.703870 97.364 -139.8471
1988.006142 97.520 -140.0447
2002.412054 97.671 -140.2687
2016.922357 97.817 -140.5179
2031.537808 97.956 -140.7931
2046.259169 98.090 -141.0983
2061.087206 98.218 -141.4395
2076.022694 98.341 -141.8244
2091.066410 98.457 -142.2606
2106.219139 98.566 -142.7545
2121.481671 98.669 -143.3103
2136.854802 98.764 -143.9301
2152.339333 98.852 -144.6128
2167.936071 98.931 -145.3547
2183.645829 99.002 -146.1493
2199.469427 99.066 -146.9879
2215.407689 99.121 -147.8607
2231.461446 99.170 -148.7585
2247.631536 99.213 -149.6733
2263.918800 99.251 -150.5995
2280.324089 99.284 -151.5332
2296.848258 99.314 -152.4719
2313.492167 99.341 -153.4136
2330.256685 99.365 -154.3569
2347.142685 99.385 -155.3007
2364.151049 99.402 -156.2441
2381.282662 99.415 -157.1862
2398.538418 99.426 -158.1266
2415.919216 99.433 -159.0649
2433.425962 99.436 -160.0010
2451.059570 99.437 -160.9345
2468.820958 99.434 -161.8641
2486.711052 99.429 -162.7878
2504.730786 99.421 -163.7030
2522.881098 99.411 -164.6075
2541.162934 99.400 -165.4997
2559.577248 99.389 -166.3785
2578.125000 99.380 -167.2438
2596.807157 99.374 -168.0960
2615.624692 99.371 -168.9360
2634.578586 99.372 -169.7648
2653.669829 99.379 -170.5831
2672.899414 99.391 -171.3909
2692.268345 99.409 -172.1872
2711.777632 99.433 -172.9705
2731.428290 99.463 -173.7388
2751.221345 99.497 -174.4904
2771.157829 99.535 -175.2234
2791.238781 99.577 -175.9364
2811.465248 99.619 -176.6279
2831.838284 99.662 -177.2971
2852.358952 99.703 -177.9439
2873.028321 99.740 -178.5680
2893.847468 99.773 -179.1698
2914.817480 99.798 -179.7494
2935.939449 99.816 179.6928
2957.214476 99.824 179.1567
2978.643672 99.822 178.6425
3000.228152 99.809 178.1510
3021.969041 99.784 177.6829
3043.867475 99.749 177.2387
3065.924593 99.702 176.8186
3088.141547 99.645 176.4228
3110.519493 99.577 176.0516
3133.059600 99.500 175.7066
3155.763041 99.414 175.3898
3178.631001 99.321 175.1038
3201.664672 99.221 174.8515
3224.865254 99.114 174.6354
3248.233957 99.004 174.4580
3271.771999 98.889 174.3217
3295.480608 98.772 174.2288
3319.361019 98.653 174.1819
3343.414477 98.533 174.1835
3367.642236 98.413 174.2362
3392.045560 98.295 174.3428
3416.625721 98.180 174.5060
3441.383999 98.069 174.7276
3466.321686 97.965 175.0082
3491.440082 97.869 175.3451
3516.740496 97.784 175.7311
3542.224247 97.714 176.1531
3567.892664 97.660 176.5920
3593.747085 97.622 177.0252
3619.788858 97.601 177.4305
3646.019340 97.595 177.7905
3672.439900 97.601 178.0958
3699.051913 97.616 178.3463
3725.856768 97.638 178.5488
3752.855862 97.666 178.7143
3780.050603 97.698 178.8535
3807.442408 97.735 178.9745
3835.032705 97.776 179.0814
3862.822933 97.821 179.1743
3890.814540 97.870 179.2511
3919.008986 97.921 179.3089
3947.407741 97.974 179.3460
3976.012284 98.027 179.3627
4004.824108 98.078 179.3622
4033.844715 98.126 179.3495
4063.075616 98.170 179.3314
4092.518337 98.210 179.3154
4122.174412 98.246 179.3086
4152.045387 98.277 179.3174
4182.132820 98.304 179.3470
4212.438278 98.328 179.4010
4242.963342 98.348 179.4817
4273.709604 98.366 179.5905
4304.678665 98.381 179.7283
4335.872141 98.395 179.8962
4367.291658 98.406 -179.9044
4398.938854 98.415 -179.6717
4430.815378 98.423 -179.4039
4462.922893 98.429 -179.0995
4495.263072 98.434 -178.7580
4527.837601 98.439 -178.3806
4560.648179 98.445 -177.9705
4593.696515 98.453 -177.5334
4626.984334 98.463 -177.0775
4660.513370 98.478 -176.6133
4694.285371 98.497 -176.1534
4728.302098 98.523 -175.7122
4762.565324 98.555 -175.3043
4797.076835 98.594 -174.9443
4831.838432 98.639 -174.6448
4866.851925 98.690 -174.4157
4902.119140 98.746 -174.2634
4937.641916 98.806 -174.1898
4973.422105 98.868 -174.1932
5009.461572 98.931 -174.2681
5045.762195 98.995 -174.4065
5082.325868 99.059 -174.5993
5119.154496 99.123 -174.8377
5156.250000 99.188 -175.1144
5193.614313 99.254 -175.4247
5231.249383 99.322 -175.7678
5269.157173 99.393 -176.1463
5307.339658 99.466 -176.5667
5345.798829 99.542 -177.0377
5384.536691 99.620 -177.5698
5423.555263 99.697 -178.1730
5462.856580 99.773 -178.8557
5502.442691 99.845 -179.6231
5542.315659 99.910 179.5228
5582.477563 99.966 178.5838
5622.930497 100.011 177.5652
5663.676569 100.042 176.4754
5704.717904 100.059 175.3258
5746.056642 100.059 174.1307
5787.694937 100.042 172.9073
5829.634960 100.006 171.6753
5871.878898 99.951 170.4565
5914.428953 99.877 169.2748
5957.287343 99.785 168.1548
6000.456303 99.676 167.1221
6043.938083 99.549 166.2023
6087.734950 99.408 165.4209
6131.849187 99.254 164.8026
6176.283094 99.089 164.3705
6221.038987 98.917 164.1452
6266.119200 98.741 164.1429
6311.526083 98.565 164.3746
6357.262002 98.394 164.8436
6403.329344 98.235 165.5443
6449.730508 98.091 166.4606
6496.467914 97.969 167.5656
6543.543998 97.875 168.8214
6590.961215 97.813 170.1807
6638.722037 97.788 171.5887
6686.828954 97.802 172.9865
6735.284473 97.858 174.3140
6784.091120 97.955 175.5134
6833.251441 98.092 176.5328
6882.767998 98.266 177.3278
6932.643372 98.471 177.8631
6982.880164 98.703 178.1129
7033.480992 98.955 178.0610
7084.448495 99.220 177.6995
7135.785329 99.492 177.0280
7187.494171 99.764 176.0516
7239.577717 100.030 174.7803
7292.038681 100.286 173.2269
7344.879799 100.526 171.4064
7398.103826 100.746 169.3347
7451.713536 100.942 167.0276
7505.711724 101.112 164.4997
7560.101205 101.253 161.7631
7614.884815 101.363 158.8272
7670.065409 101.439 155.6992
7725.645865 101.478 152.3847
7781.629080 101.475 148.8904
7838.017972 101.426 145.2261
7894.815481 101.325 141.4078
7952.024569 101.167 137.4602
8009.648217 100.945 133.4195
8067.689429 100.654 129.3348
8126.151233 100.288 125.2698
8185.036674 99.845 121.3030
8244.348824 99.323 117.5291
8304.090774 98.723 114.0621
8364.265639 98.047 111.0439
8424.876556 97.301 108.6644
8485.926684 96.494 107.2047
8547.419207 95.640 107.1334
8609.357330 94.755 109.3255
8671.744282 93.866 115.5809
8734.583316 93.008 129.5787
8797.877707 92.226 155.3467
8861.630756 91.571 -175.6341
8925.845785 91.093 -157.1931
8990.526143 90.824 -147.8885
9055.675202 90.770 -143.3429
9121.296357 90.907 -141.2483
9187.393031 91.191 -140.5331
9253.968668 91.576 -140.6784
9321.026740 92.017 -141.4188
9388.570742 92.482 -142.6131
9456.604196 92.945 -144.1842
9525.130648 93.387 -146.0884
9594.153671 93.796 -148.2982
9663.676863 94.161 -150.7925
9733.703850 94.472 -153.5496
9804.238280 94.723 -156.5433
9875.283832 94.906 -159.7392
9946.844210 95.015 -163.0923
10018.923143 95.046 -166.5461
10091.524390 94.994 -170.0318
10164.651736 94.858 -173.4696
10238.308993 94.637 -176.7720
10312.500000 94.335 -179.8485
10387.228626 93.957 177.3878
10462.498767 93.511 175.0120
10538.314345 93.009 173.0803
10614.679315 92.464 171.6229
10691.597657 91.893 170.6384
10769.073381 91.310 170.0924
10847.110526 90.734 169.9195
10925.713161 90.179 170.0301
11004.885382 89.658 170.3206
11084.631318 89.180 170.6852
11164.955126 88.751 171.0262
11245.860993 88.372 171.2596
11327.353138 88.041 171.3177
11409.435808 87.754 171.1480
11492.113283 87.508 170.7094
11575.389873 87.297 169.9691
11659.269920 87.118 168.8998
11743.757796 86.967 167.4766
11828.857906 86.841 165.6758
11914.574686 86.740 163.4739
12000.912606 86.660 160.8468
12087.876166 86.600 157.7693
12175.469900 86.559 154.2147
12263.698373 86.532 150.1540
12352.566187 86.518 145.5558
12442.077974 86.511 140.3874
12532.238400 86.505 134.6153
12623.052165 86.494 128.2079
12714.524005 86.472 121.1400
12806.658687 86.431 113.3978
12899.461015 86.365 104.9864
12992.935827 86.268 95.9399
13087.087996 86.136 86.3289
13181.922430 85.969 76.2682
13277.444074 85.767 65.9160
13373.657907 85.535 55.4622
13470.568945 85.278 45.1076
13568.182241 85.003 35.0379
13666.502883 84.718 25.4012
13765.535996 84.430 16.2962
13865.286744 84.145 7.7719
13965.760328 83.867 -0.1644
14066.961984 83.601 -7.5348
14168.896989 83.347 -14.3801
14271.570658 83.104 -20.7503
14374.988342 82.871 -26.6980
14479.155433 82.643 -32.2736
14584.077362 82.417 -37.5220
14689.759598 82.185 -42.4805
14796.207652 81.944 -47.1781
14903.427072 81.688 -51.6349
15011.423448 81.410 -55.8625
15120.202410 81.108 -59.8640
15229.769630 80.776 -63.6344
15340.130819 80.412 -67.1603
15451.291730 80.013 -70.4202
15563.258160 79.577 -73.3839
15676.035944 79.104 -76.0125
15789.630962 78.594 -78.2601
15904.049137 78.052 -80.0789
16019.296433 77.482 -81.4235
16135.378859 76.895 -82.2568
16252.302465 76.303 -82.5564
16370.073348 75.723 -82.3241
16488.697648 75.176 -81.5950
16608.181548 74.685 -80.4432
16728.531278 74.279 -78.9786
16849.753112 73.981 -77.3352
16971.853368 73.816 -75.6562
17094.838414 73.796 -74.0820
17218.714660 73.928 -72.7466
17343.488565 74.203 -71.7780
17469.166632 74.605 -71.2971
17595.755415 75.107 -71.4149
17723.261512 75.680 -72.2277
17851.691571 76.296 -73.8145
17981.052287 76.925 -76.2347
18111.350404 77.544 -79.5258
18242.592715 78.133 -83.6991
18374.786062 78.675 -88.7378
18507.937336 79.156 -94.5950
18642.053479 79.570 -101.1918
18777.141484 79.912 -108.4143
18913.208391 80.183 -116.1085
19050.261296 80.386 -124.0753
19188.307342 80.531 -132.0673
19327.353727 80.626 -139.7923
19467.407699 80.683 -146.9245
19608.476560 80.710 -153.1296
19750.567664 80.719 -158.0951
19893.688419 80.720 -161.5609
20037.846286 80.718 -163.3418
