* Measurement data measured by REW V5.31.3
* Source: EXCL: Headset (USB-C to 3.5mm Headphone Jack Adapter), MICROPHONE (Master Volume), 0, volume: 0.260
* Format: 256k Log Swept Sine, 1 sweep at -12.0 dBFS with no timing reference
* Dated: Feb 10, 2025 1:42:03 PM
* REW Settings:
*  C-weighting compensation: Off
*  Target level: 75.0 dB
* Note: ; 
* Measurement: Maxwell L3
* Smoothing: 1/6 octave
* Frequency Step: 96 ppo
* Start Frequency: 20.0 Hz
*
* Freq(Hz) SPL(dB) Phase(degrees)
20.141602 98.026 25.5982
20.287556 98.057 25.1808
20.434568 98.096 24.6243
20.582645 98.141 23.9458
20.731796 98.189 23.1635
20.882027 98.237 22.2945
21.033346 98.283 21.3539
21.185763 98.326 20.3541
21.339284 98.366 19.3048
21.493917 98.402 18.2130
21.649671 98.435 17.0839
21.806553 98.467 15.9211
21.964572 98.499 14.7274
22.123737 98.530 13.5052
22.284054 98.563 12.2570
22.445534 98.598 10.9857
22.608183 98.635 9.6950
22.772012 98.676 8.3887
22.937027 98.720 7.0710
23.103238 98.769 5.7462
23.270654 98.823 4.4178
23.439282 98.882 3.0889
23.609133 98.949 1.7609
23.780215 99.023 0.4340
23.952536 99.107 -0.8934
24.126106 99.201 -2.2246
24.300934 99.305 -3.5638
24.477028 99.419 -4.9163
24.654399 99.541 -6.2873
24.833055 99.670 -7.6814
25.013005 99.805 -9.1019
25.194260 99.941 -10.5501
25.376828 100.078 -12.0248
25.560719 100.211 -13.5228
25.745942 100.339 -15.0383
25.932508 100.460 -16.5640
26.120426 100.571 -18.0915
26.309705 100.673 -19.6122
26.500356 100.766 -21.1181
26.692388 100.849 -22.6030
26.885812 100.923 -24.0626
27.080638 100.990 -25.4953
27.276876 101.050 -26.9020
27.474535 101.107 -28.2863
27.673627 101.161 -29.6534
27.874161 101.215 -31.0094
28.076149 101.272 -32.3610
28.279600 101.332 -33.7140
28.484526 101.399 -35.0728
28.690937 101.474 -36.4404
28.898843 101.560 -37.8178
29.108256 101.659 -39.2045
29.319186 101.771 -40.5991
29.531645 101.897 -41.9992
29.745644 102.036 -43.4028
29.961193 102.186 -44.8080
30.178304 102.344 -46.2137
30.396989 102.506 -47.6195
30.617258 102.668 -49.0254
30.839123 102.824 -50.4319
31.062596 102.969 -51.8392
31.287688 103.098 -53.2470
31.514412 103.205 -54.6541
31.742778 103.286 -56.0588
31.972800 103.339 -57.4583
32.204488 103.360 -58.8496
32.437855 103.350 -60.2290
32.672913 103.306 -61.5929
32.909674 103.231 -62.9381
33.148151 103.127 -64.2612
33.388356 102.995 -65.5594
33.630302 102.839 -66.8298
33.874001 102.664 -68.0696
34.119466 102.472 -69.2760
34.366710 102.269 -70.4460
34.615745 102.060 -71.5770
34.866585 101.848 -72.6665
35.119243 101.640 -73.7130
35.373731 101.438 -74.7159
35.630064 101.248 -75.6759
35.888254 101.073 -76.5950
36.148315 100.917 -77.4766
36.410261 100.782 -78.3248
36.674104 100.671 -79.1448
36.939860 100.586 -79.9418
37.207542 100.527 -80.7211
37.477163 100.496 -81.4875
37.748738 100.493 -82.2455
38.022281 100.519 -82.9986
38.297806 100.572 -83.7499
38.575327 100.652 -84.5014
38.854860 100.759 -85.2547
39.136419 100.891 -86.0111
39.420017 101.047 -86.7718
39.705671 101.224 -87.5382
39.993395 101.423 -88.3122
40.283203 101.640 -89.0962
40.575112 101.875 -89.8935
40.869136 102.124 -90.7078
41.165290 102.387 -91.5432
41.463591 102.660 -92.4041
41.764053 102.941 -93.2944
42.066693 103.228 -94.2180
42.371525 103.517 -95.1781
42.678567 103.807 -96.1771
42.987834 104.093 -97.2169
43.299341 104.372 -98.2986
43.613106 104.643 -99.4224
43.929145 104.900 -100.5880
44.247473 105.143 -101.7945
44.568109 105.368 -103.0404
44.891068 105.573 -104.3234
45.216367 105.756 -105.6409
45.544023 105.917 -106.9893
45.874054 106.052 -108.3641
46.206476 106.163 -109.7599
46.541307 106.248 -111.1699
46.878565 106.307 -112.5866
47.218266 106.340 -114.0017
47.560429 106.350 -115.4072
47.905072 106.336 -116.7957
48.252212 106.301 -118.1611
48.601867 106.247 -119.4995
48.954056 106.176 -120.8087
49.308798 106.090 -122.0884
49.666109 105.993 -123.3397
50.026010 105.886 -124.5640
50.388520 105.771 -125.7629
50.753656 105.650 -126.9375
51.121437 105.526 -128.0884
51.491884 105.399 -129.2158
51.865016 105.270 -130.3190
52.240851 105.142 -131.3973
52.619410 105.014 -132.4494
53.000712 104.887 -133.4736
53.384777 104.762 -134.4684
53.771625 104.637 -135.4318
54.161276 104.513 -136.3622
54.553751 104.390 -137.2582
54.949070 104.266 -138.1185
55.347254 104.140 -138.9423
55.748323 104.013 -139.7291
56.152298 103.883 -140.4784
56.559201 103.750 -141.1899
56.969052 103.613 -141.8636
57.381873 103.474 -142.4993
57.797686 103.331 -143.0971
58.216512 103.186 -143.6575
58.638373 103.039 -144.1810
59.063291 102.891 -144.6689
59.491288 102.744 -145.1230
59.922386 102.598 -145.5461
60.356608 102.454 -145.9412
60.793977 102.313 -146.3120
61.234515 102.174 -146.6614
61.678246 102.039 -146.9922
62.125192 101.908 -147.3062
62.575377 101.780 -147.6044
63.028824 101.656 -147.8877
63.485557 101.537 -148.1570
63.945599 101.423 -148.4133
64.408975 101.314 -148.6583
64.875709 101.210 -148.8941
65.345825 101.112 -149.1231
65.819348 101.021 -149.3473
66.296302 100.935 -149.5687
66.776713 100.856 -149.7889
67.260604 100.783 -150.0090
67.748002 100.716 -150.2298
68.238932 100.654 -150.4521
68.733420 100.597 -150.6767
69.231490 100.545 -150.9045
69.733170 100.498 -151.1361
70.238485 100.454 -151.3723
70.747463 100.414 -151.6131
71.260128 100.377 -151.8584
71.776508 100.344 -152.1078
72.296630 100.313 -152.3606
72.820521 100.285 -152.6166
73.348209 100.260 -152.8757
73.879720 100.237 -153.1381
74.415083 100.215 -153.4041
74.954326 100.196 -153.6743
75.497475 100.177 -153.9488
76.044561 100.159 -154.2276
76.595612 100.140 -154.5106
77.150655 100.122 -154.7975
77.709720 100.102 -155.0879
78.272837 100.081 -155.3818
78.840034 100.057 -155.6795
79.411342 100.031 -155.9816
79.986789 100.002 -156.2887
80.566406 99.969 -156.6016
81.150224 99.933 -156.9206
81.738272 99.893 -157.2456
82.330581 99.851 -157.5763
82.927182 99.805 -157.9123
83.528107 99.759 -158.2529
84.133386 99.712 -158.5974
84.743051 99.667 -158.9452
85.357134 99.627 -159.2955
85.975667 99.594 -159.6475
86.598682 99.572 -160.0002
87.226212 99.565 -160.3524
87.858289 99.575 -160.7029
88.494946 99.605 -161.0505
89.136217 99.657 -161.3940
89.782135 99.732 -161.7325
90.432733 99.830 -162.0651
91.088046 99.948 -162.3908
91.748108 100.083 -162.7086
92.412952 100.232 -163.0177
93.082615 100.388 -163.3171
93.757130 100.547 -163.6064
94.436533 100.704 -163.8851
95.120859 100.853 -164.1532
95.810144 100.991 -164.4109
96.504423 101.114 -164.6582
97.203734 101.221 -164.8953
97.908112 101.310 -165.1220
98.617595 101.382 -165.3381
99.332219 101.437 -165.5433
100.052021 101.477 -165.7374
100.777039 101.504 -165.9201
101.507311 101.521 -166.0913
102.242875 101.530 -166.2511
102.983769 101.532 -166.3995
103.730032 101.528 -166.5368
104.481702 101.520 -166.6628
105.238820 101.508 -166.7774
106.001424 101.492 -166.8804
106.769554 101.469 -166.9719
107.543250 101.440 -167.0524
108.322553 101.401 -167.1226
109.107503 101.353 -167.1839
109.898141 101.294 -167.2376
110.694508 101.223 -167.2856
111.496646 101.140 -167.3298
112.304596 101.045 -167.3721
113.118402 100.940 -167.4145
113.938104 100.826 -167.4584
114.763747 100.704 -167.5051
115.595372 100.577 -167.5555
116.433024 100.448 -167.6102
117.276746 100.318 -167.6698
118.126581 100.189 -167.7348
118.982575 100.063 -167.8057
119.844772 99.940 -167.8830
120.713217 99.821 -167.9668
121.587954 99.705 -168.0571
122.469031 99.592 -168.1535
123.356492 99.482 -168.2558
124.250384 99.371 -168.3633
125.150753 99.259 -168.4760
126.057647 99.145 -168.5938
126.971113 99.026 -168.7174
127.891198 98.902 -168.8474
128.817950 98.772 -168.9850
129.751418 98.634 -169.1307
130.691651 98.490 -169.2852
131.638696 98.339 -169.4487
132.592604 98.183 -169.6207
133.553425 98.024 -169.8009
134.521208 97.864 -169.9885
135.496004 97.706 -170.1825
136.477864 97.553 -170.3820
137.466839 97.408 -170.5857
138.462981 97.275 -170.7924
139.466340 97.155 -171.0006
140.476971 97.051 -171.2087
141.494925 96.964 -171.4151
142.520256 96.893 -171.6176
143.553016 96.836 -171.8143
144.593260 96.790 -172.0029
145.641043 96.752 -172.1812
146.696418 96.719 -172.3468
147.759441 96.686 -172.4978
148.830166 96.649 -172.6320
149.908651 96.607 -172.7472
150.994951 96.557 -172.8414
152.089123 96.498 -172.9123
153.191223 96.430 -172.9577
154.301310 96.353 -172.9754
155.419441 96.269 -172.9638
156.545674 96.180 -172.9210
157.680069 96.088 -172.8455
158.822683 95.994 -172.7359
159.973578 95.901 -172.5911
161.132813 95.809 -172.4102
162.300447 95.721 -172.1928
163.476543 95.637 -171.9391
164.661162 95.557 -171.6497
165.854364 95.484 -171.3260
167.056213 95.418 -170.9700
168.266772 95.359 -170.5842
169.486102 95.307 -170.1715
170.714268 95.265 -169.7351
171.951334 95.232 -169.2782
173.197364 95.208 -168.8040
174.452424 95.194 -168.3156
175.716578 95.190 -167.8158
176.989893 95.195 -167.3078
178.272434 95.207 -166.7948
179.564270 95.227 -166.2799
180.865467 95.252 -165.7666
182.176092 95.281 -165.2582
183.496216 95.313 -164.7575
184.825905 95.346 -164.2672
186.165229 95.380 -163.7895
187.514259 95.414 -163.3260
188.873065 95.449 -162.8783
190.241717 95.484 -162.4473
191.620287 95.520 -162.0340
193.008847 95.557 -161.6388
194.407468 95.594 -161.2620
195.816225 95.633 -160.9035
197.235190 95.673 -160.5630
198.664438 95.713 -160.2401
200.104042 95.753 -159.9345
201.554078 95.793 -159.6457
203.014622 95.831 -159.3731
204.485750 95.867 -159.1155
205.967538 95.900 -158.8719
207.460064 95.930 -158.6408
208.963405 95.955 -158.4207
210.477640 95.977 -158.2100
212.002848 95.995 -158.0070
213.539108 96.010 -157.8098
215.086500 96.021 -157.6167
216.645105 96.029 -157.4263
218.215005 96.035 -157.2375
219.796281 96.037 -157.0492
221.389015 96.037 -156.8607
222.993292 96.034 -156.6713
224.609193 96.027 -156.4804
226.236804 96.015 -156.2872
227.876209 95.999 -156.0907
229.527494 95.977 -155.8901
231.190745 95.950 -155.6843
232.866048 95.918 -155.4724
234.553491 95.881 -155.2538
236.253163 95.840 -155.0278
237.965150 95.795 -154.7939
239.689544 95.749 -154.5518
241.426433 95.701 -154.3012
243.175909 95.654 -154.0423
244.938062 95.608 -153.7751
246.712984 95.565 -153.5005
248.500768 95.526 -153.2191
250.301507 95.490 -152.9318
252.115295 95.461 -152.6396
253.942226 95.437 -152.3435
255.782396 95.420 -152.0445
257.635901 95.411 -151.7436
259.502837 95.410 -151.4418
261.383301 95.417 -151.1407
263.277392 95.432 -150.8419
265.185209 95.457 -150.5474
267.106850 95.491 -150.2590
269.042417 95.533 -149.9790
270.992009 95.583 -149.7095
272.955729 95.641 -149.4526
274.933678 95.707 -149.2102
276.925961 95.778 -148.9843
278.932681 95.856 -148.7766
280.953942 95.939 -148.5884
282.989850 96.028 -148.4211
285.040511 96.121 -148.2757
287.106032 96.220 -148.1533
289.186521 96.324 -148.0547
291.282086 96.434 -147.9806
293.392836 96.550 -147.9317
295.518881 96.672 -147.9082
297.660333 96.800 -147.9104
299.817302 96.932 -147.9379
301.989902 97.067 -147.9902
304.178245 97.204 -148.0670
306.382446 97.341 -148.1678
308.602620 97.475 -148.2921
310.838882 97.605 -148.4397
313.091348 97.728 -148.6101
315.360137 97.843 -148.8026
317.645367 97.949 -149.0159
319.947156 98.043 -149.2486
322.265625 98.126 -149.4985
324.600895 98.195 -149.7632
326.953086 98.250 -150.0397
329.322323 98.291 -150.3244
331.708729 98.316 -150.6133
334.112427 98.327 -150.9022
336.533543 98.323 -151.1863
338.972204 98.304 -151.4610
341.428536 98.273 -151.7216
343.902668 98.229 -151.9640
346.394729 98.174 -152.1847
348.904848 98.112 -152.3809
351.433156 98.043 -152.5505
353.979786 97.972 -152.6924
356.544869 97.901 -152.8064
359.128540 97.834 -152.8929
361.730934 97.775 -152.9531
364.352185 97.726 -152.9887
366.992431 97.692 -153.0020
369.651810 97.674 -152.9956
372.330459 97.676 -152.9724
375.028519 97.698 -152.9357
377.746130 97.742 -152.8885
380.483434 97.805 -152.8339
383.240574 97.887 -152.7749
386.017693 97.984 -152.7144
388.814937 98.096 -152.6546
391.632450 98.217 -152.5980
394.470380 98.346 -152.5465
397.328875 98.480 -152.5016
400.208084 98.616 -152.4646
403.108157 98.752 -152.4367
406.029245 98.887 -152.4186
408.971500 99.020 -152.4110
411.935076 99.151 -152.4144
414.920127 99.280 -152.4292
417.926810 99.407 -152.4557
420.955280 99.533 -152.4941
424.005695 99.658 -152.5447
427.078215 99.782 -152.6077
430.173000 99.907 -152.6833
433.290211 100.031 -152.7715
436.430010 100.155 -152.8727
439.592562 100.278 -152.9868
442.778031 100.398 -153.1138
445.986583 100.514 -153.2537
449.218386 100.626 -153.4061
452.473607 100.730 -153.5709
455.752418 100.826 -153.7476
459.054987 100.912 -153.9357
462.381489 100.988 -154.1345
465.732096 101.052 -154.3435
469.106983 101.105 -154.5620
472.506325 101.146 -154.7892
475.930301 101.177 -155.0246
479.379088 101.197 -155.2673
482.852867 101.209 -155.5170
486.351817 101.212 -155.7729
489.876123 101.208 -156.0346
493.425968 101.198 -156.3015
497.001536 101.183 -156.5732
500.603014 101.163 -156.8490
504.230589 101.138 -157.1285
507.884452 101.109 -157.4115
511.564792 101.076 -157.6981
515.271802 101.039 -157.9889
519.005673 101.000 -158.2853
522.766602 100.957 -158.5893
526.554785 100.913 -158.9026
530.370418 100.870 -159.2263
534.213700 100.827 -159.5607
538.084833 100.787 -159.9053
541.984018 100.752 -160.2594
545.911457 100.721 -160.6221
549.867357 100.697 -160.9922
553.851922 100.679 -161.3685
557.865362 100.666 -161.7501
561.907884 100.657 -162.1355
565.979700 100.651 -162.5236
570.081022 100.646 -162.9128
574.212064 100.639 -163.3015
578.373042 100.628 -163.6881
582.564171 100.612 -164.0708
586.785671 100.588 -164.4481
591.037762 100.556 -164.8178
595.320665 100.514 -165.1779
599.634604 100.462 -165.5259
603.979804 100.399 -165.8589
608.356491 100.326 -166.1742
612.764893 100.243 -166.4691
617.205240 100.150 -166.7413
621.677763 100.050 -166.9891
626.182696 99.944 -167.2118
630.720274 99.834 -167.4097
635.290733 99.721 -167.5840
639.894312 99.609 -167.7370
644.531250 99.500 -167.8715
649.201789 99.395 -167.9906
653.906173 99.295 -168.0976
658.644647 99.202 -168.1954
663.417457 99.115 -168.2863
668.224854 99.034 -168.3720
673.067086 98.957 -168.4530
677.944408 98.883 -168.5288
682.857073 98.810 -168.5975
687.805336 98.736 -168.6561
692.789457 98.658 -168.7002
697.809695 98.574 -168.7247
702.866312 98.485 -168.7234
707.959571 98.387 -168.6894
713.089738 98.281 -168.6156
718.257080 98.167 -168.4948
723.461867 98.045 -168.3197
728.704370 97.915 -168.0838
733.984862 97.779 -167.7810
739.303619 97.639 -167.4065
744.660918 97.497 -166.9569
750.057038 97.354 -166.4302
755.492260 97.213 -165.8268
760.966869 97.076 -165.1491
766.481148 96.944 -164.4021
772.035387 96.820 -163.5930
777.629873 96.703 -162.7312
783.264900 96.595 -161.8280
788.940760 96.495 -160.8955
794.657750 96.403 -159.9462
800.416168 96.318 -158.9922
806.216313 96.239 -158.0450
812.058489 96.165 -157.1145
817.943000 96.095 -156.2095
823.870152 96.028 -155.3372
829.840255 95.964 -154.5036
835.853619 95.903 -153.7137
841.910559 95.844 -152.9714
848.011390 95.787 -152.2798
854.156430 95.733 -151.6413
860.346000 95.682 -151.0568
866.580422 95.633 -150.5264
872.860020 95.587 -150.0484
879.185124 95.543 -149.6190
885.556062 95.501 -149.2328
891.973166 95.462 -148.8823
898.436771 95.425 -148.5582
904.947215 95.391 -148.2501
911.504835 95.360 -147.9469
918.109975 95.335 -147.6379
924.762978 95.316 -147.3134
931.464192 95.305 -146.9657
938.213966 95.304 -146.5904
945.012651 95.315 -146.1868
951.860602 95.338 -145.7579
958.758176 95.375 -145.3102
965.705733 95.426 -144.8532
972.703635 95.491 -144.3977
979.752246 95.568 -143.9551
986.851935 95.657 -143.5361
994.003071 95.756 -143.1498
1001.206027 95.865 -142.8037
1008.461179 95.981 -142.5028
1015.768904 96.104 -142.2502
1023.129584 96.233 -142.0475
1030.543603 96.368 -141.8946
1038.011347 96.508 -141.7907
1045.533205 96.653 -141.7340
1053.109569 96.801 -141.7227
1060.740836 96.953 -141.7543
1068.427401 97.108 -141.8266
1076.169666 97.263 -141.9367
1083.968035 97.417 -142.0816
1091.822915 97.568 -142.2579
1099.734713 97.714 -142.4613
1107.703844 97.851 -142.6868
1115.730723 97.979 -142.9282
1123.815768 98.094 -143.1777
1131.959400 98.196 -143.4260
1140.162045 98.283 -143.6622
1148.424129 98.355 -143.8742
1156.746083 98.413 -144.0492
1165.128342 98.458 -144.1747
1173.571343 98.494 -144.2396
1182.075524 98.523 -144.2356
1190.641331 98.549 -144.1580
1199.269209 98.575 -144.0063
1207.959608 98.604 -143.7842
1216.712981 98.640 -143.4989
1225.529785 98.683 -143.1601
1234.410479 98.735 -142.7785
1243.355526 98.797 -142.3648
1252.365393 98.867 -141.9294
1261.440549 98.945 -141.4820
1270.581467 99.030 -141.0325
1279.788624 99.121 -140.5907
1289.062500 99.219 -140.1668
1298.403578 99.320 -139.7709
1307.812346 99.426 -139.4121
1317.289293 99.535 -139.0977
1326.834914 99.645 -138.8334
1336.449707 99.757 -138.6226
1346.134173 99.869 -138.4674
1355.888816 99.981 -138.3688
1365.714145 100.091 -138.3274
1375.610673 100.200 -138.3436
1385.578915 100.306 -138.4178
1395.619391 100.408 -138.5503
1405.732624 100.505 -138.7410
1415.919142 100.597 -138.9891
1426.179476 100.684 -139.2932
1436.514160 100.764 -139.6510
1446.923734 100.837 -140.0597
1457.408740 100.904 -140.5162
1467.969724 100.964 -141.0166
1478.607238 101.017 -141.5566
1489.321836 101.063 -142.1311
1500.114076 101.100 -142.7339
1510.984521 101.129 -143.3575
1521.933737 101.148 -143.9924
1532.962297 101.156 -144.6272
1544.070773 101.152 -145.2480
1555.259747 101.136 -145.8391
1566.529800 101.108 -146.3837
1577.881521 101.067 -146.8649
1589.315501 101.016 -147.2678
1600.832336 100.955 -147.5796
1612.432627 100.887 -147.7912
1624.116978 100.814 -147.8965
1635.886000 100.739 -147.8926
1647.740304 100.665 -147.7801
1659.680509 100.594 -147.5634
1671.707238 100.531 -147.2515
1683.821118 100.477 -146.8576
1696.022780 100.437 -146.3992
1708.312860 100.410 -145.8970
1720.692000 100.398 -145.3733
1733.160843 100.401 -144.8507
1745.720041 100.418 -144.3497
1758.370248 100.446 -143.8875
1771.112124 100.483 -143.4763
1783.946332 100.525 -143.1228
1796.873543 100.568 -142.8282
1809.894429 100.611 -142.5882
1823.009670 100.651 -142.3945
1836.219950 100.685 -142.2361
1849.525956 100.714 -142.1012
1862.928384 100.736 -141.9790
1876.427931 100.753 -141.8613
1890.025301 100.765 -141.7426
1903.721204 100.772 -141.6202
1917.516352 100.776 -141.4923
1931.411466 100.776 -141.3571
1945.407270 100.772 -141.2122
1959.504493 100.764 -141.0547
1973.703870 100.751 -140.8816
1988.006142 100.734 -140.6910
2002.412054 100.712 -140.4819
2016.922357 100.685 -140.2545
2031.537808 100.651 -140.0089
2046.259169 100.610 -139.7450
2061.087206 100.562 -139.4615
2076.022694 100.507 -139.1562
2091.066410 100.444 -138.8267
2106.219139 100.375 -138.4710
2121.481671 100.302 -138.0891
2136.854802 100.227 -137.6833
2152.339333 100.150 -137.2585
2167.936071 100.076 -136.8218
2183.645829 100.006 -136.3815
2199.469427 99.941 -135.9463
2215.407689 99.883 -135.5252
2231.461446 99.833 -135.1273
2247.631536 99.791 -134.7620
2263.918800 99.758 -134.4386
2280.324089 99.733 -134.1654
2296.848258 99.713 -133.9491
2313.492167 99.699 -133.7935
2330.256685 99.686 -133.6993
2347.142685 99.673 -133.6640
2364.151049 99.659 -133.6827
2381.282662 99.640 -133.7486
2398.538418 99.615 -133.8542
2415.919216 99.584 -133.9920
2433.425962 99.544 -134.1536
2451.059570 99.495 -134.3296
2468.820958 99.436 -134.5079
2486.711052 99.365 -134.6717
2504.730786 99.281 -134.7976
2522.881098 99.183 -134.8547
2541.162934 99.073 -134.8039
2559.577248 98.953 -134.6003
2578.125000 98.827 -134.1967
2596.807157 98.704 -133.5512
2615.624692 98.593 -132.6362
2634.578586 98.506 -131.4474
2653.669829 98.456 -130.0118
2672.899414 98.452 -128.3880
2692.268345 98.500 -126.6592
2711.777632 98.602 -124.9192
2731.428290 98.752 -123.2561
2751.221345 98.944 -121.7388
2771.157829 99.168 -120.4104
2791.238781 99.413 -119.2885
2811.465248 99.671 -118.3706
2831.838284 99.935 -117.6408
2852.358952 100.197 -117.0773
2873.028321 100.454 -116.6570
2893.847468 100.704 -116.3595
2914.817480 100.942 -116.1682
2935.939449 101.168 -116.0698
2957.214476 101.379 -116.0526
2978.643672 101.575 -116.1045
3000.228152 101.755 -116.2119
3021.969041 101.918 -116.3599
3043.867475 102.066 -116.5334
3065.924593 102.200 -116.7191
3088.141547 102.324 -116.9077
3110.519493 102.440 -117.0960
3133.059600 102.552 -117.2881
3155.763041 102.662 -117.4945
3178.631001 102.772 -117.7307
3201.664672 102.884 -118.0141
3224.865254 102.997 -118.3614
3248.233957 103.111 -118.7866
3271.771999 103.223 -119.3003
3295.480608 103.333 -119.9096
3319.361019 103.439 -120.6191
3343.414477 103.538 -121.4310
3367.642236 103.628 -122.3453
3392.045560 103.706 -123.3590
3416.625721 103.768 -124.4649
3441.383999 103.811 -125.6503
3466.321686 103.832 -126.8946
3491.440082 103.827 -128.1685
3516.740496 103.792 -129.4322
3542.224247 103.727 -130.6354
3567.892664 103.631 -131.7186
3593.747085 103.507 -132.6161
3619.788858 103.360 -133.2624
3646.019340 103.201 -133.6023
3672.439900 103.041 -133.6039
3699.051913 102.897 -133.2706
3725.856768 102.781 -132.6476
3752.855862 102.707 -131.8153
3780.050603 102.680 -130.8722
3807.442408 102.701 -129.9122
3835.032705 102.768 -129.0083
3862.822933 102.876 -128.2076
3890.814540 103.017 -127.5367
3919.008986 103.188 -127.0122
3947.407741 103.382 -126.6481
3976.012284 103.593 -126.4572
4004.824108 103.816 -126.4481
4033.844715 104.046 -126.6227
4063.075616 104.276 -126.9763
4092.518337 104.503 -127.5006
4122.174412 104.723 -128.1862
4152.045387 104.933 -129.0253
4182.132820 105.130 -130.0108
4212.438278 105.310 -131.1337
4242.963342 105.469 -132.3796
4273.709604 105.606 -133.7280
4304.678665 105.717 -135.1535
4335.872141 105.803 -136.6301
4367.291658 105.866 -138.1353
4398.938854 105.904 -139.6517
4430.815378 105.921 -141.1669
4462.922893 105.915 -142.6701
4495.263072 105.886 -144.1498
4527.837601 105.835 -145.5922
4560.648179 105.761 -146.9825
4593.696515 105.666 -148.3067
4626.984334 105.552 -149.5540
4660.513370 105.420 -150.7179
4694.285371 105.274 -151.7954
4728.302098 105.115 -152.7862
4762.565324 104.946 -153.6912
4797.076835 104.769 -154.5110
4831.838432 104.585 -155.2464
4866.851925 104.398 -155.8981
4902.119140 104.209 -156.4678
4937.641916 104.020 -156.9577
4973.422105 103.834 -157.3700
5009.461572 103.654 -157.7070
5045.762195 103.481 -157.9713
5082.325868 103.318 -158.1671
5119.154496 103.168 -158.3016
5156.250000 103.034 -158.3873
5193.614313 102.917 -158.4410
5231.249383 102.819 -158.4828
5269.157173 102.742 -158.5338
5307.339658 102.684 -158.6135
5345.798829 102.644 -158.7393
5384.536691 102.623 -158.9270
5423.555263 102.619 -159.1917
5462.856580 102.631 -159.5494
5502.442691 102.657 -160.0164
5542.315659 102.696 -160.6098
5582.477563 102.747 -161.3465
5622.930497 102.806 -162.2427
5663.676569 102.871 -163.3142
5704.717904 102.939 -164.5748
5746.056642 103.004 -166.0349
5787.694937 103.062 -167.6992
5829.634960 103.106 -169.5649
5871.878898 103.131 -171.6212
5914.428953 103.130 -173.8492
5957.287343 103.099 -176.2238
6000.456303 103.032 -178.7140
6043.938083 102.925 178.7155
6087.734950 102.774 176.1042
6131.849187 102.576 173.4949
6176.283094 102.329 170.9332
6221.038987 102.031 168.4681
6266.119200 101.681 166.1506
6311.526083 101.279 164.0336
6357.262002 100.826 162.1714
6403.329344 100.325 160.6199
6449.730508 99.777 159.4365
6496.467914 99.187 158.6807
6543.543998 98.559 158.4137
6590.961215 97.900 158.6978
6638.722037 97.217 159.5943
6686.828954 96.520 161.1594
6735.284473 95.820 163.4370
6784.091120 95.131 166.4495
6833.251441 94.468 170.1864
6882.767998 93.848 174.5946
6932.643372 93.291 179.5721
6982.880164 92.814 -175.0300
7033.480992 92.431 -169.3940
7084.448495 92.154 -163.7120
7135.785329 91.986 -158.1608
7187.494171 91.926 -152.8820
7239.577717 91.965 -147.9730
7292.038681 92.090 -143.4870
7344.879799 92.287 -139.4386
7398.103826 92.541 -135.8143
7451.713536 92.838 -132.5837
7505.711724 93.168 -129.7082
7560.101205 93.520 -127.1473
7614.884815 93.889 -124.8611
7670.065409 94.270 -122.8114
7725.645865 94.659 -120.9601
7781.629080 95.055 -119.2665
7838.017972 95.458 -117.6822
7894.815481 95.870 -116.1491
7952.024569 96.295 -114.6019
8009.648217 96.741 -112.9785
8067.689429 97.214 -111.2390
8126.151233 97.724 -109.3890
8185.036674 98.274 -107.5015
8244.348824 98.865 -105.7244
8304.090774 99.490 -104.2582
8364.265639 100.137 -103.3076
8424.876556 100.788 -103.0275
8485.926684 101.428 -103.4922
8547.419207 102.039 -104.6960
8609.357330 102.609 -106.5747
8671.744282 103.129 -109.0324
8734.583316 103.592 -111.9627
8797.877707 103.995 -115.2613
8861.630756 104.337 -118.8312
8925.845785 104.618 -122.5853
8990.526143 104.841 -126.4463
9055.675202 105.009 -130.3462
9121.296357 105.127 -134.2274
9187.393031 105.201 -138.0421
9253.968668 105.238 -141.7542
9321.026740 105.245 -145.3398
9388.570742 105.228 -148.7872
9456.604196 105.194 -152.0955
9525.130648 105.148 -155.2717
9594.153671 105.091 -158.3280
9663.676863 105.026 -161.2785
9733.703850 104.953 -164.1366
9804.238280 104.872 -166.9131
9875.283832 104.784 -169.6160
9946.844210 104.692 -172.2528
10018.923143 104.599 -174.8362
10091.524390 104.513 -177.3891
10164.651736 104.440 -179.9456
10238.308993 104.386 177.4525
10312.500000 104.356 174.7614
10387.228626 104.349 171.9404
10462.498767 104.364 168.9560
10538.314345 104.398 165.7839
10614.679315 104.446 162.4081
10691.597657 104.501 158.8192
10769.073381 104.555 155.0128
10847.110526 104.603 150.9888
10925.713161 104.634 146.7503
11004.885382 104.641 142.3057
11084.631318 104.616 137.6696
11164.955126 104.550 132.8630
11245.860993 104.437 127.9127
11327.353138 104.272 122.8499
11409.435808 104.049 117.7097
11492.113283 103.766 112.5312
11575.389873 103.420 107.3564
11659.269920 103.010 102.2270
11743.757796 102.538 97.1827
11828.857906 102.004 92.2578
11914.574686 101.413 87.4799
12000.912606 100.769 82.8684
12087.876166 100.076 78.4355
12175.469900 99.339 74.1867
12263.698373 98.563 70.1225
12352.566187 97.751 66.2399
12442.077974 96.907 62.5338
12532.238400 96.037 58.9963
12623.052165 95.143 55.6187
12714.524005 94.231 52.3934
12806.658687 93.304 49.3201
12899.461015 92.368 46.4152
12992.935827 91.431 43.7292
13087.087996 90.500 41.3777
13181.922430 89.589 39.6037
13277.444074 88.717 38.9179
13373.657907 87.912 40.4810
13470.568945 87.210 47.3003
13568.182241 86.653 67.6326
13666.502883 86.280 107.4420
13765.535996 86.111 135.1155
13865.286744 86.144 144.8324
13965.760328 86.347 147.0524
14066.961984 86.678 146.0555
14168.896989 87.088 143.4169
14271.570658 87.538 139.8082
14374.988342 87.996 135.5568
14479.155433 88.441 130.8407
14584.077362 88.858 125.7649
14689.759598 89.239 120.3967
14796.207652 89.578 114.7827
14903.427072 89.870 108.9573
15011.423448 90.113 102.9485
15120.202410 90.306 96.7815
15229.769630 90.448 90.4802
15340.130819 90.539 84.0691
15451.291730 90.578 77.5732
15563.258160 90.568 71.0176
15676.035944 90.509 64.4268
15789.630962 90.404 57.8247
15904.049137 90.258 51.2346
16019.296433 90.075 44.6788
16135.378859 89.862 38.1786
16252.302465 89.630 31.7501
16370.073348 89.395 25.4001
16488.697648 89.175 19.1195
16608.181548 88.996 12.8780
16728.531278 88.880 6.6223
16849.753112 88.849 0.2789
16971.853368 88.917 -6.2368
17094.838414 89.085 -13.0096
17218.714660 89.349 -20.1112
17343.488565 89.696 -27.5901
17469.166632 90.114 -35.4667
17595.755415 90.595 -43.7346
17723.261512 91.131 -52.3676
17851.691571 91.721 -61.3328
17981.052287 92.358 -70.6086
18111.350404 93.035 -80.2010
18242.592715 93.738 -90.1566
18374.786062 94.449 -100.5670
18507.937336 95.150 -111.5739
18642.053479 95.819 -123.3876
18777.141484 96.442 -136.3436
18913.208391 97.004 -151.0319
19050.261296 97.497 -168.5540
19188.307342 97.914 169.1771
19327.353727 98.256 140.3258
19467.407699 98.523 108.1099
19608.476560 98.721 81.4031
19750.567664 98.857 63.6801
19893.688419 98.942 53.2817
20037.846286 98.982 48.4775
