* Measurement data measured by REW V5.31.3
* Source: EXCL: Headset (USB-C to 3.5mm Headphone Jack Adapter), MICROPHONE (Master Volume), 0, volume: 0.260
* Format: 256k Log Swept Sine, 1 sweep at -12.0 dBFS with no timing reference
* Dated: Feb 10, 2025 1:56:22 PM
* REW Settings:
*  C-weighting compensation: Off
*  Target level: 75.0 dB
* Note: ; 
* Measurement: Maxwell (WC FreeZe) R9
* Smoothing: 1/6 octave
* Frequency Step: 96 ppo
* Start Frequency: 20.0 Hz
*
* Freq(Hz) SPL(dB) Phase(degrees)
20.141602 96.922 33.5492
20.287556 96.959 32.9771
20.434568 97.008 32.2138
20.582645 97.065 31.2826
20.731796 97.128 30.2094
20.882027 97.195 29.0205
21.033346 97.263 27.7412
21.185763 97.331 26.3948
21.339284 97.398 25.0017
21.493917 97.462 23.5797
21.649671 97.525 22.1431
21.806553 97.585 20.7034
21.964572 97.644 19.2692
22.123737 97.701 17.8464
22.284054 97.757 16.4384
22.445534 97.812 15.0462
22.608183 97.867 13.6691
22.772012 97.922 12.3044
22.937027 97.979 10.9481
23.103238 98.039 9.5950
23.270654 98.102 8.2393
23.439282 98.171 6.8747
23.609133 98.245 5.4954
23.780215 98.328 4.0961
23.952536 98.419 2.6728
24.126106 98.519 1.2232
24.300934 98.630 -0.2529
24.477028 98.750 -1.7537
24.654399 98.879 -3.2752
24.833055 99.016 -4.8118
25.013005 99.159 -6.3564
25.194260 99.306 -7.9013
25.376828 99.454 -9.4390
25.560719 99.602 -10.9629
25.745942 99.748 -12.4679
25.932508 99.888 -13.9508
26.120426 100.022 -15.4108
26.309705 100.148 -16.8495
26.500356 100.264 -18.2704
26.692388 100.370 -19.6789
26.885812 100.464 -21.0814
27.080638 100.548 -22.4850
27.276876 100.621 -23.8968
27.474535 100.684 -25.3231
27.673627 100.739 -26.7694
27.874161 100.789 -28.2399
28.076149 100.837 -29.7370
28.279600 100.886 -31.2615
28.484526 100.940 -32.8125
28.690937 101.003 -34.3874
28.898843 101.077 -35.9821
29.108256 101.166 -37.5913
29.319186 101.271 -39.2089
29.531645 101.391 -40.8282
29.745644 101.527 -42.4423
29.961193 101.674 -44.0450
30.178304 101.829 -45.6306
30.396989 101.989 -47.1947
30.617258 102.146 -48.7345
30.839123 102.297 -50.2486
31.062596 102.436 -51.7375
31.287688 102.559 -53.2027
31.514412 102.660 -54.6472
31.742778 102.737 -56.0742
31.972800 102.787 -57.4874
32.204488 102.806 -58.8897
32.437855 102.796 -60.2834
32.672913 102.755 -61.6696
32.909674 102.683 -63.0482
33.148151 102.583 -64.4182
33.388356 102.457 -65.7777
33.630302 102.308 -67.1244
33.874001 102.140 -68.4559
34.119466 101.956 -69.7701
34.366710 101.761 -71.0651
34.615745 101.559 -72.3396
34.866585 101.355 -73.5924
35.119243 101.152 -74.8229
35.373731 100.955 -76.0300
35.630064 100.767 -77.2131
35.888254 100.592 -78.3712
36.148315 100.432 -79.5039
36.410261 100.290 -80.6105
36.674104 100.168 -81.6912
36.939860 100.068 -82.7467
37.207542 99.992 -83.7781
37.477163 99.939 -84.7872
37.748738 99.911 -85.7764
38.022281 99.907 -86.7482
38.297806 99.926 -87.7056
38.575327 99.967 -88.6517
38.854860 100.029 -89.5895
39.136419 100.111 -90.5218
39.420017 100.213 -91.4511
39.705671 100.332 -92.3792
39.993395 100.469 -93.3071
40.283203 100.622 -94.2351
40.575112 100.791 -95.1628
40.869136 100.974 -96.0891
41.165290 101.172 -97.0135
41.463591 101.381 -97.9358
41.764053 101.601 -98.8567
42.066693 101.829 -99.7783
42.371525 102.064 -100.7035
42.678567 102.301 -101.6360
42.987834 102.538 -102.5797
43.299341 102.771 -103.5382
43.613106 102.998 -104.5144
43.929145 103.216 -105.5105
44.247473 103.423 -106.5276
44.568109 103.616 -107.5664
44.891068 103.793 -108.6271
45.216367 103.954 -109.7095
45.544023 104.097 -110.8132
45.874054 104.220 -111.9377
46.206476 104.324 -113.0821
46.541307 104.406 -114.2449
46.878565 104.467 -115.4245
47.218266 104.507 -116.6184
47.560429 104.524 -117.8240
47.905072 104.521 -119.0384
48.252212 104.496 -120.2582
48.601867 104.453 -121.4799
48.954056 104.390 -122.6997
49.308798 104.311 -123.9137
49.666109 104.217 -125.1177
50.026010 104.110 -126.3078
50.388520 103.992 -127.4801
50.753656 103.866 -128.6313
51.121437 103.733 -129.7587
51.491884 103.595 -130.8597
51.865016 103.455 -131.9325
52.240851 103.314 -132.9751
52.619410 103.174 -133.9858
53.000712 103.034 -134.9627
53.384777 102.896 -135.9039
53.771625 102.760 -136.8079
54.161276 102.626 -137.6734
54.553751 102.493 -138.5003
54.949070 102.360 -139.2888
55.347254 102.228 -140.0403
55.748323 102.095 -140.7562
56.152298 101.960 -141.4384
56.559201 101.823 -142.0883
56.969052 101.684 -142.7072
57.381873 101.542 -143.2960
57.797686 101.398 -143.8554
58.216512 101.252 -144.3857
58.638373 101.103 -144.8870
59.063291 100.953 -145.3593
59.491288 100.802 -145.8029
59.922386 100.650 -146.2182
60.356608 100.498 -146.6060
60.793977 100.346 -146.9676
61.234515 100.196 -147.3047
61.678246 100.048 -147.6189
62.125192 99.902 -147.9118
62.575377 99.758 -148.1851
63.028824 99.618 -148.4400
63.485557 99.482 -148.6773
63.945599 99.350 -148.8979
64.408975 99.223 -149.1021
64.875709 99.101 -149.2907
65.345825 98.985 -149.4642
65.819348 98.876 -149.6233
66.296302 98.772 -149.7690
66.776713 98.675 -149.9024
67.260604 98.585 -150.0246
67.748002 98.500 -150.1372
68.238932 98.422 -150.2415
68.733420 98.349 -150.3391
69.231490 98.281 -150.4317
69.733170 98.219 -150.5206
70.238485 98.161 -150.6071
70.747463 98.108 -150.6923
71.260128 98.060 -150.7771
71.776508 98.017 -150.8622
72.296630 97.977 -150.9482
72.820521 97.942 -151.0356
73.348209 97.910 -151.1250
73.879720 97.882 -151.2172
74.415083 97.857 -151.3136
74.954326 97.834 -151.4157
75.497475 97.814 -151.5255
76.044561 97.795 -151.6449
76.595612 97.777 -151.7759
77.150655 97.758 -151.9197
77.709720 97.740 -152.0770
78.272837 97.720 -152.2480
78.840034 97.698 -152.4322
79.411342 97.674 -152.6291
79.986789 97.646 -152.8377
80.566406 97.615 -153.0573
81.150224 97.580 -153.2870
81.738272 97.542 -153.5260
82.330581 97.501 -153.7734
82.927182 97.457 -154.0285
83.528107 97.411 -154.2903
84.133386 97.367 -154.5580
84.743051 97.324 -154.8303
85.357134 97.287 -155.1064
85.975667 97.257 -155.3849
86.598682 97.238 -155.6650
87.226212 97.234 -155.9457
87.858289 97.246 -156.2262
88.494946 97.279 -156.5057
89.136217 97.333 -156.7836
89.782135 97.409 -157.0593
90.432733 97.507 -157.3322
91.088046 97.624 -157.6014
91.748108 97.759 -157.8661
92.412952 97.906 -158.1250
93.082615 98.061 -158.3769
93.757130 98.217 -158.6205
94.436533 98.371 -158.8548
95.120859 98.517 -159.0790
95.810144 98.650 -159.2926
96.504423 98.769 -159.4956
97.203734 98.870 -159.6878
97.908112 98.952 -159.8689
98.617595 99.017 -160.0387
99.332219 99.065 -160.1966
100.052021 99.097 -160.3421
100.777039 99.116 -160.4746
101.507311 99.125 -160.5938
102.242875 99.125 -160.6993
102.983769 99.118 -160.7913
103.730032 99.106 -160.8700
104.481702 99.090 -160.9356
105.238820 99.069 -160.9886
106.001424 99.044 -161.0294
106.769554 99.013 -161.0584
107.543250 98.975 -161.0761
108.322553 98.929 -161.0833
109.107503 98.872 -161.0809
109.898141 98.804 -161.0697
110.694508 98.724 -161.0510
111.496646 98.632 -161.0258
112.304596 98.527 -160.9953
113.118402 98.412 -160.9606
113.938104 98.287 -160.9227
114.763747 98.155 -160.8827
115.595372 98.017 -160.8414
116.433024 97.876 -160.7998
117.276746 97.734 -160.7586
118.126581 97.593 -160.7188
118.982575 97.454 -160.6813
119.844772 97.319 -160.6469
120.713217 97.187 -160.6162
121.587954 97.058 -160.5896
122.469031 96.933 -160.5670
123.356492 96.809 -160.5483
124.250384 96.685 -160.5335
125.150753 96.561 -160.5226
126.057647 96.433 -160.5159
126.971113 96.301 -160.5139
127.891198 96.163 -160.5172
128.817950 96.018 -160.5264
129.751418 95.865 -160.5421
130.691651 95.705 -160.5643
131.638696 95.538 -160.5928
132.592604 95.365 -160.6268
133.553425 95.188 -160.6652
134.521208 95.010 -160.7068
135.496004 94.832 -160.7501
136.477864 94.660 -160.7938
137.466839 94.496 -160.8361
138.462981 94.343 -160.8756
139.466340 94.204 -160.9103
140.476971 94.081 -160.9384
141.494925 93.974 -160.9580
142.520256 93.884 -160.9671
143.553016 93.809 -160.9639
144.593260 93.746 -160.9462
145.641043 93.692 -160.9121
146.696418 93.643 -160.8596
147.759441 93.595 -160.7867
148.830166 93.544 -160.6916
149.908651 93.488 -160.5725
150.994951 93.425 -160.4274
152.089123 93.353 -160.2545
153.191223 93.273 -160.0518
154.301310 93.185 -159.8172
155.419441 93.090 -159.5486
156.545674 92.990 -159.2441
157.680069 92.887 -158.9023
158.822683 92.783 -158.5218
159.973578 92.680 -158.1019
161.132813 92.578 -157.6424
162.300447 92.481 -157.1438
163.476543 92.387 -156.6067
164.661162 92.299 -156.0323
165.854364 92.218 -155.4219
167.056213 92.143 -154.7773
168.266772 92.075 -154.1005
169.486102 92.016 -153.3940
170.714268 91.966 -152.6602
171.951334 91.926 -151.9017
173.197364 91.895 -151.1208
174.452424 91.875 -150.3199
175.716578 91.865 -149.5012
176.989893 91.864 -148.6672
178.272434 91.872 -147.8207
179.564270 91.888 -146.9648
180.865467 91.911 -146.1027
182.176092 91.939 -145.2378
183.496216 91.971 -144.3737
184.825905 92.006 -143.5132
186.165229 92.044 -142.6595
187.514259 92.083 -141.8148
188.873065 92.125 -140.9814
190.241717 92.169 -140.1613
191.620287 92.215 -139.3561
193.008847 92.263 -138.5675
194.407468 92.314 -137.7966
195.816225 92.368 -137.0444
197.235190 92.424 -136.3114
198.664438 92.482 -135.5977
200.104042 92.541 -134.9029
201.554078 92.601 -134.2263
203.014622 92.660 -133.5670
204.485750 92.719 -132.9239
205.967538 92.776 -132.2959
207.460064 92.831 -131.6821
208.963405 92.883 -131.0818
210.477640 92.933 -130.4944
212.002848 92.980 -129.9195
213.539108 93.025 -129.3564
215.086500 93.067 -128.8043
216.645105 93.108 -128.2622
218.215005 93.147 -127.7290
219.796281 93.184 -127.2034
221.389015 93.219 -126.6844
222.993292 93.252 -126.1709
224.609193 93.281 -125.6618
226.236804 93.307 -125.1562
227.876209 93.330 -124.6536
229.527494 93.347 -124.1535
231.190745 93.360 -123.6555
232.866048 93.369 -123.1592
234.553491 93.373 -122.6645
236.253163 93.374 -122.1712
237.965150 93.372 -121.6794
239.689544 93.369 -121.1894
241.426433 93.365 -120.7021
243.175909 93.363 -120.2184
244.938062 93.362 -119.7393
246.712984 93.364 -119.2661
248.500768 93.370 -118.7993
250.301507 93.380 -118.3396
252.115295 93.396 -117.8871
253.942226 93.418 -117.4416
255.782396 93.445 -117.0028
257.635901 93.480 -116.5705
259.502837 93.522 -116.1448
261.383301 93.571 -115.7261
263.277392 93.628 -115.3150
265.185209 93.693 -114.9125
267.106850 93.766 -114.5200
269.042417 93.846 -114.1384
270.992009 93.934 -113.7692
272.955729 94.027 -113.4134
274.933678 94.127 -113.0719
276.925961 94.231 -112.7457
278.932681 94.340 -112.4354
280.953942 94.453 -112.1418
282.989850 94.569 -111.8650
285.040511 94.690 -111.6055
287.106032 94.814 -111.3632
289.186521 94.943 -111.1380
291.282086 95.078 -110.9296
293.392836 95.218 -110.7378
295.518881 95.363 -110.5624
297.660333 95.515 -110.4030
299.817302 95.671 -110.2597
301.989902 95.830 -110.1320
304.178245 95.992 -110.0197
306.382446 96.154 -109.9224
308.602620 96.314 -109.8395
310.838882 96.471 -109.7706
313.091348 96.623 -109.7154
315.360137 96.768 -109.6736
317.645367 96.905 -109.6451
319.947156 97.034 -109.6301
322.265625 97.152 -109.6286
324.600895 97.261 -109.6409
326.953086 97.358 -109.6672
329.322323 97.444 -109.7079
331.708729 97.520 -109.7633
334.112427 97.584 -109.8336
336.533543 97.637 -109.9190
338.972204 97.679 -110.0200
341.428536 97.712 -110.1366
343.902668 97.736 -110.2689
346.394729 97.752 -110.4172
348.904848 97.762 -110.5813
351.433156 97.769 -110.7611
353.979786 97.773 -110.9562
356.544869 97.777 -111.1663
359.128540 97.784 -111.3910
361.730934 97.796 -111.6298
364.352185 97.815 -111.8821
366.992431 97.844 -112.1472
369.651810 97.884 -112.4242
372.330459 97.938 -112.7120
375.028519 98.004 -113.0091
377.746130 98.083 -113.3136
380.483434 98.173 -113.6232
383.240574 98.273 -113.9350
386.017693 98.382 -114.2461
388.814937 98.495 -114.5531
391.632450 98.611 -114.8524
394.470380 98.727 -115.1405
397.328875 98.842 -115.4141
400.208084 98.953 -115.6698
403.108157 99.059 -115.9049
406.029245 99.160 -116.1170
408.971500 99.255 -116.3042
411.935076 99.346 -116.4653
414.920127 99.432 -116.5995
417.926810 99.516 -116.7071
420.955280 99.597 -116.7887
424.005695 99.679 -116.8460
427.078215 99.761 -116.8810
430.173000 99.844 -116.8966
433.290211 99.930 -116.8959
436.430010 100.018 -116.8825
439.592562 100.107 -116.8605
442.778031 100.198 -116.8337
445.986583 100.287 -116.8063
449.218386 100.375 -116.7820
452.473607 100.458 -116.7644
455.752418 100.534 -116.7566
459.054987 100.603 -116.7609
462.381489 100.663 -116.7793
465.732096 100.712 -116.8129
469.106983 100.750 -116.8619
472.506325 100.777 -116.9261
475.930301 100.793 -117.0048
479.379088 100.799 -117.0965
482.852867 100.794 -117.1996
486.351817 100.781 -117.3122
489.876123 100.759 -117.4325
493.425968 100.730 -117.5584
497.001536 100.694 -117.6882
500.603014 100.651 -117.8201
504.230589 100.603 -117.9526
507.884452 100.549 -118.0845
511.564792 100.489 -118.2145
515.271802 100.423 -118.3418
519.005673 100.353 -118.4651
522.766602 100.277 -118.5835
526.554785 100.199 -118.6959
530.370418 100.118 -118.8012
534.213700 100.037 -118.8981
538.084833 99.958 -118.9856
541.984018 99.883 -119.0623
545.911457 99.813 -119.1270
549.867357 99.748 -119.1783
553.851922 99.691 -119.2149
557.865362 99.639 -119.2354
561.907884 99.592 -119.2385
565.979700 99.549 -119.2230
570.081022 99.508 -119.1876
574.212064 99.468 -119.1315
578.373042 99.426 -119.0538
582.564171 99.381 -118.9538
586.785671 99.331 -118.8312
591.037762 99.275 -118.6856
595.320665 99.213 -118.5172
599.634604 99.144 -118.3262
603.979804 99.067 -118.1132
608.356491 98.984 -117.8792
612.764893 98.895 -117.6253
617.205240 98.799 -117.3530
621.677763 98.700 -117.0639
626.182696 98.598 -116.7602
630.720274 98.494 -116.4440
635.290733 98.392 -116.1177
639.894312 98.292 -115.7839
644.531250 98.196 -115.4451
649.201789 98.107 -115.1041
653.906173 98.024 -114.7635
658.644647 97.950 -114.4257
663.417457 97.883 -114.0932
668.224854 97.823 -113.7681
673.067086 97.769 -113.4522
677.944408 97.719 -113.1472
682.857073 97.670 -112.8540
687.805336 97.621 -112.5732
692.789457 97.570 -112.3051
697.809695 97.513 -112.0490
702.866312 97.450 -111.8034
707.959571 97.379 -111.5659
713.089738 97.297 -111.3328
718.257080 97.205 -111.0988
723.461867 97.100 -110.8567
728.704370 96.982 -110.5973
733.984862 96.851 -110.3094
739.303619 96.707 -109.9796
744.660918 96.551 -109.5931
750.057038 96.383 -109.1338
755.492260 96.204 -108.5854
760.966869 96.017 -107.9323
766.481148 95.822 -107.1607
772.035387 95.623 -106.2592
777.629873 95.421 -105.2204
783.264900 95.219 -104.0410
788.940760 95.018 -102.7227
794.657750 94.822 -101.2720
800.416168 94.631 -99.7003
806.216313 94.447 -98.0231
812.058489 94.272 -96.2594
817.943000 94.108 -94.4303
823.870152 93.954 -92.5577
829.840255 93.812 -90.6635
835.853619 93.682 -88.7679
841.910559 93.565 -86.8891
848.011390 93.461 -85.0422
854.156430 93.369 -83.2395
860.346000 93.290 -81.4905
866.580422 93.224 -79.8015
872.860020 93.171 -78.1767
879.185124 93.129 -76.6179
885.556062 93.100 -75.1254
891.973166 93.082 -73.6978
898.436771 93.075 -72.3327
904.947215 93.080 -71.0265
911.504835 93.095 -69.7748
918.109975 93.122 -68.5725
924.762978 93.159 -67.4142
931.464192 93.207 -66.2943
938.213966 93.266 -65.2070
945.012651 93.334 -64.1473
951.860602 93.412 -63.1106
958.758176 93.499 -62.0934
965.705733 93.595 -61.0932
972.703635 93.698 -60.1092
979.752246 93.809 -59.1417
986.851935 93.928 -58.1929
994.003071 94.053 -57.2658
1001.206027 94.185 -56.3644
1008.461179 94.323 -55.4936
1015.768904 94.467 -54.6579
1023.129584 94.618 -53.8617
1030.543603 94.774 -53.1088
1038.011347 94.936 -52.4019
1045.533205 95.103 -51.7426
1053.109569 95.274 -51.1310
1060.740836 95.448 -50.5661
1068.427401 95.624 -50.0452
1076.169666 95.799 -49.5642
1083.968035 95.973 -49.1179
1091.822915 96.143 -48.6993
1099.734713 96.307 -48.3006
1107.703844 96.463 -47.9130
1115.730723 96.610 -47.5271
1123.815768 96.746 -47.1337
1131.959400 96.871 -46.7244
1140.162045 96.986 -46.2927
1148.424129 97.090 -45.8345
1156.746083 97.186 -45.3493
1165.128342 97.275 -44.8405
1173.571343 97.358 -44.3144
1182.075524 97.436 -43.7797
1190.641331 97.510 -43.2445
1199.269209 97.581 -42.7146
1207.959608 97.646 -42.1915
1216.712981 97.707 -41.6710
1225.529785 97.761 -41.1435
1234.410479 97.810 -40.5945
1243.355526 97.851 -40.0065
1252.365393 97.887 -39.3610
1261.440549 97.919 -38.6413
1270.581467 97.949 -37.8355
1279.788624 97.980 -36.9380
1289.062500 98.015 -35.9521
1298.403578 98.057 -34.8898
1307.812346 98.108 -33.7711
1317.289293 98.170 -32.6220
1326.834914 98.243 -31.4711
1336.449707 98.327 -30.3463
1346.134173 98.421 -29.2727
1355.888816 98.522 -28.2698
1365.714145 98.628 -27.3517
1375.610673 98.736 -26.5266
1385.578915 98.842 -25.7978
1395.619391 98.945 -25.1645
1405.732624 99.042 -24.6227
1415.919142 99.131 -24.1657
1426.179476 99.211 -23.7847
1436.514160 99.281 -23.4694
1446.923734 99.341 -23.2082
1457.408740 99.390 -22.9884
1467.969724 99.428 -22.7972
1478.607238 99.458 -22.6216
1489.321836 99.478 -22.4498
1500.114076 99.492 -22.2719
1510.984521 99.501 -22.0815
1521.933737 99.505 -21.8764
1532.962297 99.506 -21.6592
1544.070773 99.505 -21.4374
1555.259747 99.501 -21.2217
1566.529800 99.493 -21.0237
1577.881521 99.478 -20.8528
1589.315501 99.454 -20.7139
1600.832336 99.418 -20.6054
1612.432627 99.366 -20.5183
1624.116978 99.294 -20.4362
1635.886000 99.201 -20.3360
1647.740304 99.086 -20.1888
1659.680509 98.947 -19.9607
1671.707238 98.785 -19.6148
1683.821118 98.602 -19.1123
1696.022780 98.402 -18.4151
1708.312860 98.188 -17.4880
1720.692000 97.966 -16.3021
1733.160843 97.743 -14.8387
1745.720041 97.526 -13.0926
1758.370248 97.323 -11.0755
1771.112124 97.140 -8.8167
1783.946332 96.982 -6.3615
1796.873543 96.853 -3.7665
1809.894429 96.754 -1.0932
1823.009670 96.684 1.5998
1836.219950 96.642 4.2621
1849.525956 96.623 6.8549
1862.928384 96.624 9.3509
1876.427931 96.641 11.7332
1890.025301 96.669 13.9923
1903.721204 96.705 16.1256
1917.516352 96.744 18.1366
1931.411466 96.783 20.0356
1945.407270 96.817 21.8395
1959.504493 96.844 23.5713
1973.703870 96.861 25.2579
1988.006142 96.866 26.9283
2002.412054 96.858 28.6114
2016.922357 96.837 30.3336
2031.537808 96.804 32.1170
2046.259169 96.762 33.9777
2061.087206 96.711 35.9243
2076.022694 96.655 37.9569
2091.066410 96.597 40.0671
2106.219139 96.540 42.2395
2121.481671 96.485 44.4543
2136.854802 96.435 46.6895
2152.339333 96.391 48.9244
2167.936071 96.354 51.1409
2183.645829 96.326 53.3241
2199.469427 96.305 55.4627
2215.407689 96.292 57.5485
2231.461446 96.286 59.5773
2247.631536 96.287 61.5485
2263.918800 96.294 63.4647
2280.324089 96.305 65.3308
2296.848258 96.320 67.1523
2313.492167 96.338 68.9344
2330.256685 96.358 70.6804
2347.142685 96.382 72.3915
2364.151049 96.407 74.0668
2381.282662 96.433 75.7031
2398.538418 96.461 77.2955
2415.919216 96.490 78.8381
2433.425962 96.517 80.3239
2451.059570 96.543 81.7460
2468.820958 96.566 83.0993
2486.711052 96.583 84.3812
2504.730786 96.593 85.5944
2522.881098 96.592 86.7479
2541.162934 96.579 87.8586
2559.577248 96.552 88.9517
2578.125000 96.508 90.0606
2596.807157 96.449 91.2271
2615.624692 96.375 92.5010
2634.578586 96.288 93.9393
2653.669829 96.194 95.6028
2672.899414 96.100 97.5507
2692.268345 96.014 99.8318
2711.777632 95.948 102.4729
2731.428290 95.911 105.4672
2751.221345 95.913 108.7660
2771.157829 95.960 112.2807
2791.238781 96.052 115.8963
2811.465248 96.186 119.4933
2831.838284 96.353 122.9708
2852.358952 96.545 126.2610
2873.028321 96.751 129.3330
2893.847468 96.964 132.1868
2914.817480 97.176 134.8437
2935.939449 97.381 137.3357
2957.214476 97.578 139.6970
2978.643672 97.764 141.9580
3000.228152 97.938 144.1422
3021.969041 98.102 146.2648
3043.867475 98.255 148.3346
3065.924593 98.397 150.3556
3088.141547 98.528 152.3314
3110.519493 98.649 154.2665
3133.059600 98.760 156.1681
3155.763041 98.861 158.0448
3178.631001 98.954 159.9053
3201.664672 99.039 161.7561
3224.865254 99.119 163.6009
3248.233957 99.194 165.4392
3271.771999 99.266 167.2677
3295.480608 99.336 169.0806
3319.361019 99.404 170.8712
3343.414477 99.470 172.6322
3367.642236 99.534 174.3561
3392.045560 99.597 176.0353
3416.625721 99.657 177.6623
3441.383999 99.713 179.2299
3466.321686 99.765 -179.2681
3491.440082 99.811 -177.8357
3516.740496 99.849 -176.4731
3542.224247 99.877 -175.1750
3567.892664 99.891 -173.9276
3593.747085 99.889 -172.7069
3619.788858 99.869 -171.4760
3646.019340 99.828 -170.1838
3672.439900 99.766 -168.7656
3699.051913 99.686 -167.1448
3725.856768 99.591 -165.2404
3752.855862 99.489 -162.9787
3780.050603 99.392 -160.3109
3807.442408 99.311 -157.2321
3835.032705 99.257 -153.7938
3862.822933 99.239 -150.0991
3890.814540 99.260 -146.2800
3919.008986 99.319 -142.4639
3947.407741 99.411 -138.7471
3976.012284 99.530 -135.1830
4004.824108 99.669 -131.7878
4033.844715 99.822 -128.5555
4063.075616 99.987 -125.4725
4092.518337 100.159 -122.5276
4122.174412 100.335 -119.7134
4152.045387 100.513 -117.0232
4182.132820 100.688 -114.4473
4212.438278 100.859 -111.9707
4242.963342 101.024 -109.5751
4273.709604 101.181 -107.2415
4304.678665 101.330 -104.9540
4335.872141 101.471 -102.7020
4367.291658 101.604 -100.4801
4398.938854 101.727 -98.2856
4430.815378 101.841 -96.1164
4462.922893 101.943 -93.9686
4495.263072 102.033 -91.8359
4527.837601 102.110 -89.7097
4560.648179 102.173 -87.5794
4593.696515 102.221 -85.4326
4626.984334 102.256 -83.2555
4660.513370 102.277 -81.0325
4694.285371 102.285 -78.7470
4728.302098 102.282 -76.3839
4762.565324 102.271 -73.9323
4797.076835 102.256 -71.3887
4831.838432 102.239 -68.7582
4866.851925 102.223 -66.0544
4902.119140 102.211 -63.2951
4937.641916 102.205 -60.4977
4973.422105 102.204 -57.6751
5009.461572 102.209 -54.8338
5045.762195 102.221 -51.9746
5082.325868 102.239 -49.0953
5119.154496 102.264 -46.1933
5156.250000 102.297 -43.2676
5193.614313 102.339 -40.3202
5231.249383 102.389 -37.3543
5269.157173 102.447 -34.3735
5307.339658 102.515 -31.3811
5345.798829 102.591 -28.3802
5384.536691 102.676 -25.3754
5423.555263 102.771 -22.3730
5462.856580 102.875 -19.3817
5502.442691 102.990 -16.4104
5542.315659 103.115 -13.4677
5582.477563 103.251 -10.5604
5622.930497 103.399 -7.6958
5663.676569 103.560 -4.8838
5704.717904 103.736 -2.1403
5746.056642 103.927 0.5110
5787.694937 104.133 3.0391
5829.634960 104.353 5.4097
5871.878898 104.584 7.5902
5914.428953 104.821 9.5549
5957.287343 105.060 11.2878
6000.456303 105.295 12.7834
6043.938083 105.520 14.0446
6087.734950 105.731 15.0798
6131.849187 105.921 15.9022
6176.283094 106.087 16.5279
6221.038987 106.224 16.9761
6266.119200 106.328 17.2675
6311.526083 106.397 17.4227
6357.262002 106.426 17.4624
6403.329344 106.413 17.4064
6449.730508 106.357 17.2751
6496.467914 106.253 17.0920
6543.543998 106.101 16.8835
6590.961215 105.897 16.6806
6638.722037 105.642 16.5187
6686.828954 105.333 16.4380
6735.284473 104.971 16.4844
6784.091120 104.556 16.7089
6833.251441 104.089 17.1670
6882.767998 103.573 17.9162
6932.643372 103.012 19.0128
6982.880164 102.410 20.5126
7033.480992 101.774 22.4735
7084.448495 101.111 24.9634
7135.785329 100.426 28.0665
7187.494171 99.731 31.8920
7239.577717 99.034 36.5782
7292.038681 98.351 42.2944
7344.879799 97.696 49.2288
7398.103826 97.089 57.5463
7451.713536 96.548 67.2932
7505.711724 96.093 78.2538
7560.101205 95.737 89.8530
7614.884815 95.488 101.2650
7670.065409 95.341 111.7201
7725.645865 95.284 120.7655
7781.629080 95.298 128.2928
7838.017972 95.360 134.4125
7894.815481 95.445 139.3192
7952.024569 95.534 143.2131
8009.648217 95.608 146.2660
8067.689429 95.651 148.6182
8126.151233 95.651 150.3875
8185.036674 95.597 151.6786
8244.348824 95.484 152.5905
8304.090774 95.308 153.2202
8364.265639 95.071 153.6674
8424.876556 94.781 154.0411
8485.926684 94.454 154.4751
8547.419207 94.116 155.1601
8609.357330 93.802 156.4449
8671.744282 93.558 159.2333
8734.583316 93.435 167.6501
8797.877707 93.472 -115.2890
8861.630756 93.688 -44.9603
8925.845785 94.075 -36.5347
8990.526143 94.602 -33.1270
9055.675202 95.228 -30.9824
9121.296357 95.913 -29.3126
9187.393031 96.626 -27.8533
9253.968668 97.346 -26.4940
9321.026740 98.058 -25.1936
9388.570742 98.754 -23.9535
9456.604196 99.429 -22.8047
9525.130648 100.078 -21.7972
9594.153671 100.696 -20.9897
9663.676863 101.277 -20.4398
9733.703850 101.815 -20.1937
9804.238280 102.304 -20.2802
9875.283832 102.735 -20.7076
9946.844210 103.102 -21.4639
10018.923143 103.399 -22.5184
10091.524390 103.619 -23.8250
10164.651736 103.762 -25.3270
10238.308993 103.825 -26.9651
10312.500000 103.809 -28.6812
10387.228626 103.714 -30.4184
10462.498767 103.541 -32.1172
10538.314345 103.290 -33.7132
10614.679315 102.964 -35.1387
10691.597657 102.566 -36.3265
10769.073381 102.099 -37.2139
10847.110526 101.570 -37.7452
10925.713161 100.984 -37.8743
11004.885382 100.348 -37.5648
11084.631318 99.667 -36.7907
11164.955126 98.949 -35.5350
11245.860993 98.198 -33.7890
11327.353138 97.420 -31.5518
11409.435808 96.620 -28.8303
11492.113283 95.802 -25.6387
11575.389873 94.971 -21.9995
11659.269920 94.131 -17.9440
11743.757796 93.286 -13.5172
11828.857906 92.441 -8.7822
11914.574686 91.603 -3.8256
12000.912606 90.779 1.2398
12087.876166 89.977 6.2770
12175.469900 89.209 11.1346
12263.698373 88.485 15.6614
12352.566187 87.822 19.7222
12442.077974 87.236 23.2094
12532.238400 86.745 26.0491
12623.052165 86.371 28.1992
12714.524005 86.133 29.6434
12806.658687 86.046 30.3846
12899.461015 86.114 30.4435
12992.935827 86.329 29.8615
13087.087996 86.671 28.7035
13181.922430 87.110 27.0580
13277.444074 87.615 25.0308
13373.657907 88.155 22.7352
13470.568945 88.703 20.2818
13568.182241 89.239 17.7714
13666.502883 89.747 15.2916
13765.535996 90.215 12.9173
13865.286744 90.637 10.7126
13965.760328 91.008 8.7343
14066.961984 91.326 7.0340
14168.896989 91.592 5.6611
14271.570658 91.811 4.6638
14374.988342 91.986 4.0889
14479.155433 92.126 3.9809
14584.077362 92.240 4.3774
14689.759598 92.341 5.3039
14796.207652 92.442 6.7656
14903.427072 92.556 8.7398
15011.423448 92.694 11.1674
15120.202410 92.867 13.9490
15229.769630 93.081 16.9473
15340.130819 93.336 19.9982
15451.291730 93.629 22.9302
15563.258160 93.951 25.5876
15676.035944 94.293 27.8499
15789.630962 94.640 29.6418
15904.049137 94.979 30.9337
16019.296433 95.300 31.7339
16135.378859 95.593 32.0768
16252.302465 95.849 32.0112
16370.073348 96.064 31.5916
16488.697648 96.235 30.8722
16608.181548 96.360 29.9053
16728.531278 96.439 28.7401
16849.753112 96.474 27.4227
16971.853368 96.468 25.9961
17094.838414 96.428 24.4990
17218.714660 96.363 22.9649
17343.488565 96.284 21.4182
17469.166632 96.207 19.8691
17595.755415 96.150 18.3066
17723.261512 96.130 16.6893
17851.691571 96.162 14.9395
17981.052287 96.256 12.9424
18111.350404 96.409 10.5547
18242.592715 96.609 7.6222
18374.786062 96.833 4.0004
18507.937336 97.059 -0.4266
18642.053479 97.260 -5.7386
18777.141484 97.418 -11.9824
18913.208391 97.519 -19.1805
19050.261296 97.560 -27.3367
19188.307342 97.542 -36.4186
19327.353727 97.475 -46.2984
19467.407699 97.371 -56.6386
19608.476560 97.251 -66.7780
19750.567664 97.134 -75.7369
19893.688419 97.042 -82.4368
20037.846286 96.991 -86.0138
