* Measurement data measured by REW V5.31.3
* Source: EXCL: Headset (USB-C to 3.5mm Headphone Jack Adapter), MICROPHONE (Master Volume), 0, volume: 0.260
* Format: 256k Log Swept Sine, 1 sweep at -12.0 dBFS with no timing reference
* Dated: Feb 10, 2025 1:48:45 PM
* REW Settings:
*  C-weighting compensation: Off
*  Target level: 75.0 dB
* Note: ; 
* Measurement: Maxwell R3
* Smoothing: 1/6 octave
* Frequency Step: 96 ppo
* Start Frequency: 20.0 Hz
*
* Freq(Hz) SPL(dB) Phase(degrees)
20.141602 99.356 33.6169
20.287556 99.415 33.0939
20.434568 99.490 32.3970
20.582645 99.575 31.5463
20.731796 99.665 30.5640
20.882027 99.754 29.4727
21.033346 99.838 28.2942
21.185763 99.912 27.0485
21.339284 99.976 25.7538
21.493917 100.027 24.4261
21.649671 100.066 23.0788
21.806553 100.094 21.7230
21.964572 100.111 20.3672
22.123737 100.121 19.0176
22.284054 100.125 17.6781
22.445534 100.126 16.3503
22.608183 100.125 15.0342
22.772012 100.126 13.7279
22.937027 100.130 12.4282
23.103238 100.139 11.1311
23.270654 100.156 9.8317
23.439282 100.182 8.5250
23.609133 100.218 7.2060
23.780215 100.266 5.8698
23.952536 100.327 4.5120
24.126106 100.400 3.1288
24.300934 100.487 1.7172
24.477028 100.585 0.2747
24.654399 100.695 -1.2002
24.833055 100.815 -2.7082
25.013005 100.943 -4.2492
25.194260 101.077 -5.8222
25.376828 101.213 -7.4255
25.560719 101.351 -9.0567
25.745942 101.487 -10.7125
25.932508 101.619 -12.3890
26.120426 101.746 -14.0819
26.309705 101.865 -15.7864
26.500356 101.976 -17.4976
26.692388 102.078 -19.2104
26.885812 102.170 -20.9199
27.080638 102.252 -22.6215
27.276876 102.326 -24.3111
27.474535 102.392 -25.9852
27.673627 102.451 -27.6412
27.874161 102.506 -29.2772
28.076149 102.559 -30.8924
28.279600 102.613 -32.4868
28.484526 102.671 -34.0610
28.690937 102.735 -35.6168
28.898843 102.809 -37.1561
29.108256 102.895 -38.6813
29.319186 102.994 -40.1949
29.531645 103.107 -41.6994
29.745644 103.232 -43.1969
29.961193 103.367 -44.6890
30.178304 103.511 -46.1768
30.396989 103.658 -47.6605
30.617258 103.805 -49.1394
30.839123 103.946 -50.6120
31.062596 104.078 -52.0761
31.287688 104.194 -53.5287
31.514412 104.293 -54.9662
31.742778 104.368 -56.3851
31.972800 104.419 -57.7815
32.204488 104.442 -59.1521
32.437855 104.436 -60.4943
32.672913 104.402 -61.8061
32.909674 104.339 -63.0866
33.148151 104.248 -64.3361
33.388356 104.132 -65.5556
33.630302 103.994 -66.7471
33.874001 103.835 -67.9131
34.119466 103.661 -69.0565
34.366710 103.474 -70.1799
34.615745 103.279 -71.2856
34.866585 103.080 -72.3753
35.119243 102.881 -73.4498
35.373731 102.687 -74.5089
35.630064 102.502 -75.5516
35.888254 102.329 -76.5763
36.148315 102.173 -77.5810
36.410261 102.035 -78.5638
36.674104 101.919 -79.5234
36.939860 101.826 -80.4592
37.207542 101.759 -81.3717
37.477163 101.718 -82.2621
37.748738 101.703 -83.1326
38.022281 101.714 -83.9853
38.297806 101.750 -84.8228
38.575327 101.811 -85.6475
38.854860 101.896 -86.4617
39.136419 102.004 -87.2681
39.420017 102.134 -88.0698
39.705671 102.286 -88.8706
39.993395 102.459 -89.6750
40.283203 102.651 -90.4879
40.575112 102.862 -91.3145
40.869136 103.089 -92.1595
41.165290 103.330 -93.0268
41.463591 103.583 -93.9193
41.764053 103.846 -94.8389
42.066693 104.116 -95.7866
42.371525 104.389 -96.7628
42.678567 104.664 -97.7674
42.987834 104.938 -98.7998
43.299341 105.207 -99.8594
43.613106 105.468 -100.9452
43.929145 105.719 -102.0565
44.247473 105.957 -103.1930
44.568109 106.179 -104.3550
44.891068 106.384 -105.5435
45.216367 106.569 -106.7597
45.544023 106.734 -108.0053
45.874054 106.876 -109.2817
46.206476 106.995 -110.5891
46.541307 107.092 -111.9270
46.878565 107.164 -113.2930
47.218266 107.214 -114.6835
47.560429 107.240 -116.0933
47.905072 107.244 -117.5162
48.252212 107.227 -118.9456
48.601867 107.190 -120.3743
48.954056 107.135 -121.7959
49.308798 107.062 -123.2043
49.666109 106.973 -124.5945
50.026010 106.871 -125.9622
50.388520 106.757 -127.3036
50.753656 106.634 -128.6153
51.121437 106.504 -129.8938
51.491884 106.368 -131.1362
51.865016 106.230 -132.3395
52.240851 106.090 -133.5017
52.619410 105.950 -134.6217
53.000712 105.811 -135.6989
53.384777 105.673 -136.7338
53.771625 105.537 -137.7268
54.161276 105.402 -138.6784
54.553751 105.267 -139.5891
54.949070 105.132 -140.4590
55.347254 104.998 -141.2883
55.748323 104.862 -142.0772
56.152298 104.725 -142.8264
56.559201 104.588 -143.5371
56.969052 104.448 -144.2107
57.381873 104.307 -144.8493
57.797686 104.165 -145.4554
58.216512 104.020 -146.0313
58.638373 103.874 -146.5793
59.063291 103.727 -147.1011
59.491288 103.579 -147.5979
59.922386 103.431 -148.0703
60.356608 103.282 -148.5186
60.793977 103.135 -148.9429
61.234515 102.988 -149.3434
61.678246 102.843 -149.7207
62.125192 102.701 -150.0758
62.575377 102.561 -150.4101
63.028824 102.425 -150.7249
63.485557 102.293 -151.0219
63.945599 102.166 -151.3024
64.408975 102.044 -151.5676
64.875709 101.927 -151.8188
65.345825 101.816 -152.0570
65.819348 101.711 -152.2833
66.296302 101.613 -152.4990
66.776713 101.521 -152.7055
67.260604 101.435 -152.9047
67.748002 101.356 -153.0984
68.238932 101.283 -153.2888
68.733420 101.216 -153.4779
69.231490 101.155 -153.6675
69.733170 101.099 -153.8589
70.238485 101.049 -154.0532
70.747463 101.003 -154.2517
71.260128 100.961 -154.4552
71.776508 100.923 -154.6647
72.296630 100.890 -154.8806
72.820521 100.859 -155.1030
73.348209 100.832 -155.3316
73.879720 100.807 -155.5661
74.415083 100.785 -155.8060
74.954326 100.764 -156.0509
75.497475 100.745 -156.3008
76.044561 100.727 -156.5559
76.595612 100.709 -156.8166
77.150655 100.691 -157.0835
77.709720 100.671 -157.3569
78.272837 100.650 -157.6370
78.840034 100.626 -157.9238
79.411342 100.599 -158.2172
79.986789 100.568 -158.5172
80.566406 100.534 -158.8236
81.150224 100.496 -159.1363
81.738272 100.455 -159.4550
82.330581 100.410 -159.7793
82.927182 100.362 -160.1087
83.528107 100.313 -160.4424
84.133386 100.264 -160.7796
84.743051 100.218 -161.1194
85.357134 100.176 -161.4611
85.975667 100.142 -161.8038
86.598682 100.119 -162.1469
87.226212 100.111 -162.4896
87.858289 100.121 -162.8309
88.494946 100.151 -163.1698
89.136217 100.203 -163.5050
89.782135 100.279 -163.8357
90.432733 100.378 -164.1607
91.088046 100.497 -164.4794
91.748108 100.635 -164.7911
92.412952 100.785 -165.0954
93.082615 100.944 -165.3922
93.757130 101.105 -165.6813
94.436533 101.264 -165.9631
95.120859 101.415 -166.2375
95.810144 101.554 -166.5045
96.504423 101.679 -166.7640
97.203734 101.787 -167.0154
97.908112 101.877 -167.2580
98.617595 101.949 -167.4914
99.332219 102.005 -167.7150
100.052021 102.046 -167.9283
100.777039 102.074 -168.1310
101.507311 102.091 -168.3232
102.242875 102.101 -168.5051
102.983769 102.104 -168.6773
103.730032 102.102 -168.8405
104.481702 102.095 -168.9952
105.238820 102.085 -169.1420
106.001424 102.070 -169.2811
106.769554 102.049 -169.4127
107.543250 102.022 -169.5369
108.322553 101.986 -169.6542
109.107503 101.940 -169.7653
109.898141 101.882 -169.8712
110.694508 101.812 -169.9732
111.496646 101.730 -170.0724
112.304596 101.636 -170.1701
113.118402 101.530 -170.2677
113.938104 101.415 -170.3662
114.763747 101.292 -170.4667
115.595372 101.164 -170.5699
116.433024 101.032 -170.6760
117.276746 100.900 -170.7850
118.126581 100.768 -170.8968
118.982575 100.638 -171.0112
119.844772 100.512 -171.1283
120.713217 100.389 -171.2484
121.587954 100.270 -171.3722
122.469031 100.154 -171.5002
123.356492 100.040 -171.6329
124.250384 99.926 -171.7711
125.150753 99.811 -171.9155
126.057647 99.694 -172.0670
126.971113 99.572 -172.2264
127.891198 99.445 -172.3950
128.817950 99.311 -172.5736
129.751418 99.170 -172.7631
130.691651 99.022 -172.9639
131.638696 98.867 -173.1758
132.592604 98.706 -173.3982
133.553425 98.541 -173.6298
134.521208 98.375 -173.8691
135.496004 98.210 -174.1147
136.477864 98.050 -174.3649
137.466839 97.897 -174.6181
138.462981 97.755 -174.8727
139.466340 97.626 -175.1272
140.476971 97.513 -175.3799
141.494925 97.415 -175.6291
142.520256 97.332 -175.8727
143.553016 97.264 -176.1086
144.593260 97.206 -176.3348
145.641043 97.156 -176.5489
146.696418 97.110 -176.7488
147.759441 97.064 -176.9322
148.830166 97.015 -177.0969
149.908651 96.960 -177.2403
150.994951 96.897 -177.3599
152.089123 96.825 -177.4528
153.191223 96.743 -177.5162
154.301310 96.652 -177.5476
155.419441 96.554 -177.5449
156.545674 96.451 -177.5067
157.680069 96.343 -177.4320
158.822683 96.234 -177.3203
159.973578 96.124 -177.1711
161.132813 96.017 -176.9841
162.300447 95.912 -176.7594
163.476543 95.812 -176.4967
164.661162 95.717 -176.1968
165.854364 95.628 -175.8605
167.056213 95.546 -175.4892
168.266772 95.471 -175.0848
169.486102 95.404 -174.6498
170.714268 95.346 -174.1868
171.951334 95.298 -173.6986
173.197364 95.259 -173.1880
174.452424 95.230 -172.6578
175.716578 95.210 -172.1109
176.989893 95.199 -171.5499
178.272434 95.197 -170.9777
179.564270 95.202 -170.3973
180.865467 95.213 -169.8119
182.176092 95.228 -169.2247
183.496216 95.246 -168.6387
184.825905 95.267 -168.0570
186.165229 95.289 -167.4819
187.514259 95.312 -166.9156
188.873065 95.336 -166.3602
190.241717 95.362 -165.8172
191.620287 95.389 -165.2883
193.008847 95.418 -164.7744
194.407468 95.450 -164.2766
195.816225 95.484 -163.7951
197.235190 95.519 -163.3302
198.664438 95.557 -162.8814
200.104042 95.595 -162.4484
201.554078 95.633 -162.0303
203.014622 95.671 -161.6262
204.485750 95.707 -161.2355
205.967538 95.741 -160.8573
207.460064 95.772 -160.4905
208.963405 95.801 -160.1343
210.477640 95.827 -159.7878
212.002848 95.851 -159.4501
213.539108 95.872 -159.1206
215.086500 95.891 -158.7985
216.645105 95.908 -158.4832
218.215005 95.924 -158.1740
219.796281 95.938 -157.8704
221.389015 95.951 -157.5717
222.993292 95.961 -157.2776
224.609193 95.969 -156.9877
226.236804 95.973 -156.7013
227.876209 95.972 -156.4182
229.527494 95.967 -156.1376
231.190745 95.958 -155.8590
232.866048 95.944 -155.5820
234.553491 95.925 -155.3060
236.253163 95.904 -155.0311
237.965150 95.879 -154.7575
239.689544 95.853 -154.4858
241.426433 95.827 -154.2170
243.175909 95.801 -153.9521
244.938062 95.777 -153.6918
246.712984 95.755 -153.4369
248.500768 95.736 -153.1878
250.301507 95.720 -152.9448
252.115295 95.709 -152.7078
253.942226 95.704 -152.4767
255.782396 95.703 -152.2515
257.635901 95.710 -152.0323
259.502837 95.722 -151.8194
261.383301 95.742 -151.6131
263.277392 95.770 -151.4144
265.185209 95.805 -151.2239
267.106850 95.847 -151.0428
269.042417 95.896 -150.8723
270.992009 95.952 -150.7136
272.955729 96.013 -150.5680
274.933678 96.080 -150.4363
276.925961 96.152 -150.3192
278.932681 96.228 -150.2169
280.953942 96.307 -150.1294
282.989850 96.390 -150.0562
285.040511 96.475 -149.9966
287.106032 96.565 -149.9500
289.186521 96.658 -149.9157
291.282086 96.756 -149.8930
293.392836 96.860 -149.8818
295.518881 96.969 -149.8818
297.660333 97.083 -149.8930
299.817302 97.203 -149.9156
301.989902 97.326 -149.9494
304.178245 97.451 -149.9942
306.382446 97.578 -150.0498
308.602620 97.703 -150.1157
310.838882 97.826 -150.1916
313.091348 97.944 -150.2769
315.360137 98.055 -150.3713
317.645367 98.160 -150.4744
319.947156 98.256 -150.5861
322.265625 98.342 -150.7062
324.600895 98.419 -150.8347
326.953086 98.486 -150.9716
329.322323 98.542 -151.1171
331.708729 98.586 -151.2711
334.112427 98.620 -151.4337
336.533543 98.643 -151.6047
338.972204 98.655 -151.7840
341.428536 98.658 -151.9714
343.902668 98.651 -152.1669
346.394729 98.638 -152.3702
348.904848 98.618 -152.5815
351.433156 98.595 -152.8009
353.979786 98.570 -153.0291
356.544869 98.546 -153.2664
359.128540 98.525 -153.5139
361.730934 98.511 -153.7720
364.352185 98.506 -154.0418
366.992431 98.512 -154.3238
369.651810 98.531 -154.6185
372.330459 98.566 -154.9262
375.028519 98.616 -155.2471
377.746130 98.681 -155.5806
380.483434 98.760 -155.9262
383.240574 98.851 -156.2829
386.017693 98.952 -156.6491
388.814937 99.060 -157.0231
391.632450 99.171 -157.4029
394.470380 99.283 -157.7862
397.328875 99.394 -158.1705
400.208084 99.500 -158.5531
403.108157 99.602 -158.9312
406.029245 99.697 -159.3016
408.971500 99.784 -159.6614
411.935076 99.866 -160.0074
414.920127 99.940 -160.3366
417.926810 100.010 -160.6463
420.955280 100.075 -160.9341
424.005695 100.137 -161.1980
427.078215 100.198 -161.4365
430.173000 100.258 -161.6487
433.290211 100.320 -161.8346
436.430010 100.382 -161.9948
439.592562 100.445 -162.1309
442.778031 100.508 -162.2453
445.986583 100.572 -162.3412
449.218386 100.633 -162.4225
452.473607 100.691 -162.4933
455.752418 100.745 -162.5582
459.054987 100.792 -162.6213
462.381489 100.832 -162.6865
465.732096 100.863 -162.7568
469.106983 100.885 -162.8348
472.506325 100.898 -162.9220
475.930301 100.901 -163.0193
479.379088 100.896 -163.1273
482.852867 100.883 -163.2457
486.351817 100.864 -163.3744
489.876123 100.837 -163.5128
493.425968 100.806 -163.6607
497.001536 100.770 -163.8173
500.603014 100.729 -163.9822
504.230589 100.684 -164.1548
507.884452 100.635 -164.3346
511.564792 100.581 -164.5207
515.271802 100.524 -164.7124
519.005673 100.462 -164.9088
522.766602 100.397 -165.1089
526.554785 100.329 -165.3116
530.370418 100.260 -165.5156
534.213700 100.192 -165.7199
538.084833 100.127 -165.9234
541.984018 100.065 -166.1247
545.911457 100.010 -166.3229
549.867357 99.960 -166.5166
553.851922 99.918 -166.7046
557.865362 99.881 -166.8856
561.907884 99.850 -167.0580
565.979700 99.823 -167.2204
570.081022 99.798 -167.3711
574.212064 99.773 -167.5085
578.373042 99.746 -167.6312
582.564171 99.716 -167.7376
586.785671 99.681 -167.8263
591.037762 99.640 -167.8964
595.320665 99.592 -167.9469
599.634604 99.537 -167.9775
603.979804 99.476 -167.9882
608.356491 99.407 -167.9794
612.764893 99.332 -167.9521
617.205240 99.252 -167.9077
621.677763 99.169 -167.8481
626.182696 99.084 -167.7756
630.720274 98.998 -167.6929
635.290733 98.914 -167.6030
639.894312 98.834 -167.5093
644.531250 98.760 -167.4151
649.201789 98.693 -167.3236
653.906173 98.634 -167.2378
658.644647 98.583 -167.1604
663.417457 98.542 -167.0934
668.224854 98.507 -167.0388
673.067086 98.479 -166.9976
677.944408 98.456 -166.9710
682.857073 98.435 -166.9594
687.805336 98.414 -166.9633
692.789457 98.391 -166.9825
697.809695 98.364 -167.0168
702.866312 98.332 -167.0655
707.959571 98.292 -167.1274
713.089738 98.244 -167.2005
718.257080 98.187 -167.2820
723.461867 98.120 -167.3678
728.704370 98.042 -167.4525
733.984862 97.954 -167.5295
739.303619 97.855 -167.5907
744.660918 97.746 -167.6267
750.057038 97.626 -167.6268
755.492260 97.498 -167.5800
760.966869 97.361 -167.4743
766.481148 97.217 -167.2983
772.035387 97.066 -167.0410
777.629873 96.910 -166.6924
783.264900 96.750 -166.2446
788.940760 96.587 -165.6924
794.657750 96.423 -165.0335
800.416168 96.258 -164.2698
806.216313 96.096 -163.4073
812.058489 95.936 -162.4563
817.943000 95.782 -161.4307
823.870152 95.635 -160.3473
829.840255 95.496 -159.2245
835.853619 95.366 -158.0813
841.910559 95.247 -156.9354
848.011390 95.140 -155.8031
854.156430 95.043 -154.6982
860.346000 94.960 -153.6318
866.580422 94.888 -152.6123
872.860020 94.828 -151.6459
879.185124 94.780 -150.7363
885.556062 94.744 -149.8853
891.973166 94.720 -149.0931
898.436771 94.707 -148.3584
904.947215 94.706 -147.6786
911.504835 94.715 -147.0502
918.109975 94.736 -146.4688
924.762978 94.767 -145.9296
931.464192 94.809 -145.4275
938.213966 94.862 -144.9575
945.012651 94.924 -144.5151
951.860602 94.996 -144.0966
958.758176 95.077 -143.6990
965.705733 95.167 -143.3209
972.703635 95.265 -142.9617
979.752246 95.371 -142.6223
986.851935 95.483 -142.3047
994.003071 95.603 -142.0117
1001.206027 95.729 -141.7466
1008.461179 95.861 -141.5130
1015.768904 95.999 -141.3143
1023.129584 96.143 -141.1535
1030.543603 96.293 -141.0331
1038.011347 96.449 -140.9550
1045.533205 96.610 -140.9201
1053.109569 96.777 -140.9291
1060.740836 96.949 -140.9817
1068.427401 97.124 -141.0774
1076.169666 97.300 -141.2151
1083.968035 97.477 -141.3935
1091.822915 97.652 -141.6109
1099.734713 97.822 -141.8654
1107.703844 97.986 -142.1545
1115.730723 98.141 -142.4757
1123.815768 98.285 -142.8257
1131.959400 98.415 -143.2005
1140.162045 98.532 -143.5955
1148.424129 98.633 -144.0046
1156.746083 98.717 -144.4205
1165.128342 98.786 -144.8340
1173.571343 98.839 -145.2343
1182.075524 98.878 -145.6088
1190.641331 98.903 -145.9435
1199.269209 98.918 -146.2237
1207.959608 98.923 -146.4349
1216.712981 98.922 -146.5641
1225.529785 98.917 -146.6003
1234.410479 98.912 -146.5362
1243.355526 98.908 -146.3682
1252.365393 98.908 -146.0967
1261.440549 98.916 -145.7271
1270.581467 98.932 -145.2694
1279.788624 98.959 -144.7387
1289.062500 98.998 -144.1539
1298.403578 99.049 -143.5373
1307.812346 99.114 -142.9121
1317.289293 99.192 -142.3012
1326.834914 99.281 -141.7249
1336.449707 99.380 -141.2002
1346.134173 99.487 -140.7401
1355.888816 99.599 -140.3532
1365.714145 99.716 -140.0451
1375.610673 99.834 -139.8184
1385.578915 99.952 -139.6736
1395.619391 100.067 -139.6096
1405.732624 100.179 -139.6243
1415.919142 100.286 -139.7143
1426.179476 100.388 -139.8754
1436.514160 100.484 -140.1028
1446.923734 100.574 -140.3908
1457.408740 100.657 -140.7334
1467.969724 100.735 -141.1244
1478.607238 100.806 -141.5570
1489.321836 100.871 -142.0247
1500.114076 100.930 -142.5209
1510.984521 100.983 -143.0389
1521.933737 101.031 -143.5724
1532.962297 101.073 -144.1153
1544.070773 101.109 -144.6622
1555.259747 101.138 -145.2081
1566.529800 101.161 -145.7483
1577.881521 101.178 -146.2792
1589.315501 101.187 -146.7973
1600.832336 101.188 -147.2998
1612.432627 101.182 -147.7840
1624.116978 101.168 -148.2471
1635.886000 101.146 -148.6858
1647.740304 101.114 -149.0952
1659.680509 101.073 -149.4686
1671.707238 101.023 -149.7965
1683.821118 100.965 -150.0672
1696.022780 100.898 -150.2674
1708.312860 100.825 -150.3836
1720.692000 100.748 -150.4038
1733.160843 100.671 -150.3193
1745.720041 100.595 -150.1267
1758.370248 100.526 -149.8291
1771.112124 100.466 -149.4368
1783.946332 100.417 -148.9670
1796.873543 100.381 -148.4424
1809.894429 100.359 -147.8885
1823.009670 100.350 -147.3313
1836.219950 100.352 -146.7947
1849.525956 100.363 -146.2977
1862.928384 100.380 -145.8536
1876.427931 100.401 -145.4688
1890.025301 100.423 -145.1429
1903.721204 100.443 -144.8701
1917.516352 100.460 -144.6398
1931.411466 100.472 -144.4384
1945.407270 100.478 -144.2514
1959.504493 100.478 -144.0651
1973.703870 100.472 -143.8685
1988.006142 100.460 -143.6546
2002.412054 100.441 -143.4207
2016.922357 100.417 -143.1672
2031.537808 100.385 -142.8962
2046.259169 100.347 -142.6100
2061.087206 100.301 -142.3104
2076.022694 100.247 -141.9984
2091.066410 100.185 -141.6755
2106.219139 100.116 -141.3432
2121.481671 100.041 -141.0040
2136.854802 99.961 -140.6604
2152.339333 99.877 -140.3148
2167.936071 99.790 -139.9674
2183.645829 99.700 -139.6164
2199.469427 99.609 -139.2575
2215.407689 99.518 -138.8839
2231.461446 99.427 -138.4881
2247.631536 99.339 -138.0628
2263.918800 99.255 -137.6032
2280.324089 99.177 -137.1079
2296.848258 99.107 -136.5802
2313.492167 99.047 -136.0285
2330.256685 98.998 -135.4649
2347.142685 98.959 -134.9035
2364.151049 98.930 -134.3580
2381.282662 98.911 -133.8405
2398.538418 98.900 -133.3600
2415.919216 98.895 -132.9230
2433.425962 98.896 -132.5338
2451.059570 98.900 -132.1944
2468.820958 98.906 -131.9052
2486.711052 98.913 -131.6640
2504.730786 98.920 -131.4662
2522.881098 98.925 -131.3047
2541.162934 98.927 -131.1699
2559.577248 98.927 -131.0506
2578.125000 98.925 -130.9336
2596.807157 98.921 -130.8039
2615.624692 98.915 -130.6437
2634.578586 98.909 -130.4314
2653.669829 98.905 -130.1415
2672.899414 98.907 -129.7457
2692.268345 98.919 -129.2173
2711.777632 98.947 -128.5366
2731.428290 98.997 -127.6973
2751.221345 99.076 -126.7123
2771.157829 99.187 -125.6155
2791.238781 99.333 -124.4584
2811.465248 99.510 -123.3027
2831.838284 99.714 -122.2092
2852.358952 99.938 -121.2283
2873.028321 100.173 -120.3936
2893.847468 100.413 -119.7205
2914.817480 100.650 -119.2087
2935.939449 100.878 -118.8472
2957.214476 101.095 -118.6186
2978.643672 101.297 -118.5035
3000.228152 101.484 -118.4829
3021.969041 101.656 -118.5399
3043.867475 101.812 -118.6605
3065.924593 101.953 -118.8340
3088.141547 102.081 -119.0520
3110.519493 102.196 -119.3080
3133.059600 102.299 -119.5959
3155.763041 102.392 -119.9100
3178.631001 102.476 -120.2451
3201.664672 102.552 -120.5969
3224.865254 102.622 -120.9634
3248.233957 102.688 -121.3451
3271.771999 102.751 -121.7451
3295.480608 102.813 -122.1690
3319.361019 102.873 -122.6239
3343.414477 102.933 -123.1174
3367.642236 102.991 -123.6564
3392.045560 103.048 -124.2467
3416.625721 103.101 -124.8926
3441.383999 103.151 -125.5970
3466.321686 103.196 -126.3611
3491.440082 103.235 -127.1848
3516.740496 103.266 -128.0663
3542.224247 103.288 -129.0015
3567.892664 103.297 -129.9822
3593.747085 103.292 -130.9947
3619.788858 103.269 -132.0170
3646.019340 103.227 -133.0179
3672.439900 103.163 -133.9551
3699.051913 103.077 -134.7771
3725.856768 102.971 -135.4261
3752.855862 102.852 -135.8444
3780.050603 102.726 -135.9850
3807.442408 102.607 -135.8241
3835.032705 102.505 -135.3736
3862.822933 102.435 -134.6855
3890.814540 102.402 -133.8454
3919.008986 102.411 -132.9531
3947.407741 102.458 -132.1004
3976.012284 102.537 -131.3533
4004.824108 102.641 -130.7466
4033.844715 102.762 -130.2888
4063.075616 102.894 -129.9728
4092.518337 103.034 -129.7869
4122.174412 103.178 -129.7220
4152.045387 103.323 -129.7724
4182.132820 103.467 -129.9341
4212.438278 103.607 -130.2011
4242.963342 103.740 -130.5638
4273.709604 103.863 -131.0092
4304.678665 103.976 -131.5232
4335.872141 104.077 -132.0925
4367.291658 104.166 -132.7060
4398.938854 104.242 -133.3547
4430.815378 104.305 -134.0307
4462.922893 104.354 -134.7256
4495.263072 104.388 -135.4306
4527.837601 104.407 -136.1364
4560.648179 104.412 -136.8343
4593.696515 104.401 -137.5157
4626.984334 104.375 -138.1723
4660.513370 104.335 -138.7951
4694.285371 104.281 -139.3737
4728.302098 104.215 -139.8969
4762.565324 104.139 -140.3535
4797.076835 104.056 -140.7351
4831.838432 103.969 -141.0386
4866.851925 103.883 -141.2678
4902.119140 103.801 -141.4340
4937.641916 103.727 -141.5526
4973.422105 103.663 -141.6397
5009.461572 103.610 -141.7096
5045.762195 103.568 -141.7724
5082.325868 103.538 -141.8353
5119.154496 103.520 -141.9034
5156.250000 103.514 -141.9814
5193.614313 103.521 -142.0754
5231.249383 103.540 -142.1925
5269.157173 103.572 -142.3403
5307.339658 103.615 -142.5262
5345.798829 103.670 -142.7564
5384.536691 103.735 -143.0369
5423.555263 103.809 -143.3734
5462.856580 103.894 -143.7726
5502.442691 103.988 -144.2422
5542.315659 104.091 -144.7905
5582.477563 104.204 -145.4252
5622.930497 104.326 -146.1534
5663.676569 104.458 -146.9816
5704.717904 104.599 -147.9167
5746.056642 104.751 -148.9678
5787.694937 104.912 -150.1465
5829.634960 105.082 -151.4678
5871.878898 105.259 -152.9483
5914.428953 105.439 -154.6035
5957.287343 105.616 -156.4453
6000.456303 105.785 -158.4792
6043.938083 105.940 -160.7034
6087.734950 106.074 -163.1099
6131.849187 106.181 -165.6850
6176.283094 106.255 -168.4099
6221.038987 106.290 -171.2601
6266.119200 106.281 -174.2062
6311.526083 106.225 -177.2135
6357.262002 106.117 179.7561
6403.329344 105.956 176.7432
6449.730508 105.741 173.7904
6496.467914 105.470 170.9418
6543.543998 105.144 168.2433
6590.961215 104.765 165.7430
6638.722037 104.333 163.4911
6686.828954 103.853 161.5399
6735.284473 103.327 159.9435
6784.091120 102.762 158.7578
6833.251441 102.165 158.0396
6882.767998 101.543 157.8455
6932.643372 100.908 158.2276
6982.880164 100.275 159.2268
7033.480992 99.660 160.8610
7084.448495 99.085 163.1100
7135.785329 98.572 165.9016
7187.494171 98.145 169.1023
7239.577717 97.823 172.5228
7292.038681 97.617 175.9385
7344.879799 97.529 179.1237
7398.103826 97.550 -178.1142
7451.713536 97.658 -175.9117
7505.711724 97.830 -174.3428
7560.101205 98.038 -173.4268
7614.884815 98.256 -173.1401
7670.065409 98.461 -173.4287
7725.645865 98.634 -174.2175
7781.629080 98.757 -175.4158
7838.017972 98.820 -176.9199
7894.815481 98.810 -178.6115
7952.024569 98.723 179.6441
8009.648217 98.555 178.0002
8067.689429 98.310 176.6310
8126.151233 97.995 175.7363
8185.036674 97.624 175.5513
8244.348824 97.215 176.3559
8304.090774 96.798 178.4686
8364.265639 96.409 -177.8045
8424.876556 96.089 -172.3095
8485.926684 95.883 -165.2809
8547.419207 95.822 -157.5095
8609.357330 95.921 -150.1353
8671.744282 96.166 -144.1054
8734.583316 96.529 -139.8220
8797.877707 96.970 -137.2220
8861.630756 97.455 -136.0240
8925.845785 97.955 -135.9089
8990.526143 98.451 -136.5989
9055.675202 98.933 -137.8793
9121.296357 99.394 -139.5950
9187.393031 99.832 -141.6383
9253.968668 100.247 -143.9332
9321.026740 100.638 -146.4249
9388.570742 101.008 -149.0759
9456.604196 101.359 -151.8648
9525.130648 101.695 -154.7852
9594.153671 102.015 -157.8427
9663.676863 102.321 -161.0523
9733.703850 102.609 -164.4354
9804.238280 102.877 -168.0150
9875.283832 103.117 -171.8100
9946.844210 103.322 -175.8304
10018.923143 103.485 179.9260
10091.524390 103.599 175.4747
10164.651736 103.657 170.8448
10238.308993 103.658 166.0744
10312.500000 103.602 161.2032
10387.228626 103.491 156.2652
10462.498767 103.330 151.2855
10538.314345 103.124 146.2830
10614.679315 102.875 141.2741
10691.597657 102.585 136.2751
10769.073381 102.256 131.3027
10847.110526 101.888 126.3748
10925.713161 101.480 121.5095
11004.885382 101.033 116.7244
11084.631318 100.546 112.0362
11164.955126 100.019 107.4594
11245.860993 99.451 103.0070
11327.353138 98.845 98.6886
11409.435808 98.199 94.5098
11492.113283 97.516 90.4716
11575.389873 96.796 86.5707
11659.269920 96.042 82.8000
11743.757796 95.255 79.1494
11828.857906 94.437 75.6067
11914.574686 93.590 72.1580
12000.912606 92.714 68.7870
12087.876166 91.812 65.4732
12175.469900 90.886 62.1877
12263.698373 89.941 58.8859
12352.566187 88.984 55.4968
12442.077974 88.025 51.9062
12532.238400 87.083 47.9337
12623.052165 86.185 43.3011
12714.524005 85.373 37.5820
12806.658687 84.698 30.1248
12899.461015 84.217 19.9543
12992.935827 83.977 5.7933
13087.087996 83.995 -13.2271
13181.922430 84.252 -35.5751
13277.444074 84.699 -56.9581
13373.657907 85.273 -74.4166
13470.568945 85.919 -88.0372
13568.182241 86.592 -98.9932
13666.502883 87.260 -108.2924
13765.535996 87.903 -116.5882
13865.286744 88.508 -124.2709
13965.760328 89.068 -131.5662
14066.961984 89.582 -138.6002
14168.896989 90.052 -145.4406
14271.570658 90.486 -152.1220
14374.988342 90.891 -158.6635
14479.155433 91.279 -165.0794
14584.077362 91.661 -171.3862
14689.759598 92.047 -177.6064
14796.207652 92.446 176.2307
14903.427072 92.866 170.0887
15011.423448 93.309 163.9254
15120.202410 93.775 157.6945
15229.769630 94.261 151.3466
15340.130819 94.760 144.8318
15451.291730 95.264 138.1017
15563.258160 95.762 131.1119
15676.035944 96.242 123.8253
15789.630962 96.694 116.2153
15904.049137 97.106 108.2676
16019.296433 97.469 99.9816
16135.378859 97.774 91.3702
16252.302465 98.016 82.4583
16370.073348 98.190 73.2801
16488.697648 98.296 63.8772
16608.181548 98.333 54.2955
16728.531278 98.309 44.5812
16849.753112 98.231 34.7758
16971.853368 98.116 24.9107
17094.838414 97.982 15.0018
17218.714660 97.853 5.0448
17343.488565 97.755 -4.9847
17469.166632 97.710 -15.1312
17595.755415 97.736 -25.4529
17723.261512 97.837 -36.0152
17851.691571 98.009 -46.8832
17981.052287 98.236 -58.1158
18111.350404 98.498 -69.7637
18242.592715 98.772 -81.8755
18374.786062 99.038 -94.5139
18507.937336 99.281 -107.7889
18642.053479 99.489 -121.9185
18777.141484 99.656 -137.3369
18913.208391 99.778 -154.8820
19050.261296 99.858 -176.0139
19188.307342 99.898 157.5927
19327.353727 99.906 127.0635
19467.407699 99.890 98.9583
19608.476560 99.862 78.2762
19750.567664 99.829 64.6965
19893.688419 99.802 56.5400
20037.846286 99.787 52.6998
