* Measurement data measured by REW V5.31.3
* Source: EXCL: Headset (USB-C to 3.5mm Headphone Jack Adapter), MICROPHONE (Master Volume), 0, volume: 0.260
* Format: 256k Log Swept Sine, 1 sweep at -12.0 dBFS with no timing reference
* Dated: Feb 10, 2025 1:57:34 PM
* REW Settings:
*  C-weighting compensation: Off
*  Target level: 75.0 dB
* Note: ; 
* Measurement: Maxwell (WC FreeZe) L2
* Smoothing: 1/6 octave
* Frequency Step: 96 ppo
* Start Frequency: 20.0 Hz
*
* Freq(Hz) SPL(dB) Phase(degrees)
20.141602 99.309 19.3474
20.287556 99.349 18.8582
20.434568 99.399 18.2061
20.582645 99.457 17.4113
20.731796 99.517 16.4955
20.882027 99.576 15.4800
21.033346 99.631 14.3848
21.185763 99.681 13.2275
21.339284 99.724 12.0234
21.493917 99.760 10.7851
21.649671 99.790 9.5227
21.806553 99.815 8.2442
21.964572 99.837 6.9554
22.123737 99.857 5.6603
22.284054 99.878 4.3611
22.445534 99.902 3.0589
22.608183 99.929 1.7538
22.772012 99.961 0.4448
22.937027 99.998 -0.8693
23.103238 100.042 -2.1899
23.270654 100.093 -3.5184
23.439282 100.150 -4.8561
23.609133 100.214 -6.2037
23.780215 100.286 -7.5619
23.952536 100.365 -8.9308
24.126106 100.452 -10.3104
24.300934 100.546 -11.7003
24.477028 100.647 -13.1001
24.654399 100.755 -14.5097
24.833055 100.869 -15.9285
25.013005 100.989 -17.3563
25.194260 101.111 -18.7929
25.376828 101.236 -20.2379
25.560719 101.362 -21.6909
25.745942 101.485 -23.1513
25.932508 101.606 -24.6183
26.120426 101.722 -26.0909
26.309705 101.831 -27.5679
26.500356 101.934 -29.0480
26.692388 102.027 -30.5298
26.885812 102.113 -32.0120
27.080638 102.189 -33.4936
27.276876 102.258 -34.9738
27.474535 102.319 -36.4522
27.673627 102.375 -37.9288
27.874161 102.428 -39.4038
28.076149 102.479 -40.8776
28.279600 102.533 -42.3509
28.484526 102.592 -43.8243
28.690937 102.659 -45.2982
28.898843 102.737 -46.7725
29.108256 102.827 -48.2471
29.319186 102.930 -49.7211
29.531645 103.047 -51.1933
29.745644 103.176 -52.6622
29.961193 103.315 -54.1260
30.178304 103.460 -55.5830
30.396989 103.608 -57.0314
30.617258 103.754 -58.4701
30.839123 103.892 -59.8981
31.062596 104.020 -61.3147
31.287688 104.131 -62.7198
31.514412 104.222 -64.1133
31.742778 104.291 -65.4952
31.972800 104.333 -66.8654
32.204488 104.348 -68.2234
32.437855 104.334 -69.5684
32.672913 104.291 -70.8994
32.909674 104.220 -72.2152
33.148151 104.122 -73.5144
33.388356 104.001 -74.7962
33.630302 103.857 -76.0597
33.874001 103.696 -77.3044
34.119466 103.520 -78.5301
34.366710 103.334 -79.7366
34.615745 103.141 -80.9240
34.866585 102.945 -82.0919
35.119243 102.750 -83.2404
35.373731 102.560 -84.3693
35.630064 102.379 -85.4787
35.888254 102.209 -86.5691
36.148315 102.055 -87.6411
36.410261 101.919 -88.6958
36.674104 101.803 -89.7343
36.939860 101.709 -90.7577
37.207542 101.638 -91.7664
37.477163 101.591 -92.7610
37.748738 101.568 -93.7414
38.022281 101.568 -94.7078
38.297806 101.592 -95.6605
38.575327 101.640 -96.6007
38.854860 101.710 -97.5302
39.136419 101.801 -98.4518
39.420017 101.912 -99.3686
39.705671 102.043 -100.2839
39.993395 102.192 -101.2006
40.283203 102.356 -102.1207
40.575112 102.536 -103.0458
40.869136 102.728 -103.9764
41.165290 102.932 -104.9129
41.463591 103.147 -105.8557
41.764053 103.369 -106.8060
42.066693 103.597 -107.7652
42.371525 103.830 -108.7358
42.678567 104.064 -109.7206
42.987834 104.297 -110.7226
43.299341 104.527 -111.7445
43.613106 104.750 -112.7887
43.929145 104.964 -113.8570
44.247473 105.167 -114.9503
44.568109 105.357 -116.0692
44.891068 105.530 -117.2130
45.216367 105.687 -118.3807
45.544023 105.824 -119.5702
45.874054 105.941 -120.7788
46.206476 106.036 -122.0031
46.541307 106.110 -123.2394
46.878565 106.162 -124.4838
47.218266 106.192 -125.7327
47.560429 106.200 -126.9825
47.905072 106.187 -128.2297
48.252212 106.154 -129.4711
48.601867 106.102 -130.7035
48.954056 106.032 -131.9235
49.308798 105.946 -133.1277
49.666109 105.846 -134.3130
50.026010 105.734 -135.4762
50.388520 105.611 -136.6141
50.753656 105.479 -137.7239
51.121437 105.342 -138.8033
51.491884 105.200 -139.8500
51.865016 105.055 -140.8626
52.240851 104.908 -141.8399
52.619410 104.762 -142.7814
53.000712 104.616 -143.6870
53.384777 104.472 -144.5568
53.771625 104.330 -145.3912
54.161276 104.189 -146.1908
54.553751 104.049 -146.9563
54.949070 103.910 -147.6889
55.347254 103.773 -148.3898
55.748323 103.635 -149.0604
56.152298 103.497 -149.7020
56.559201 103.358 -150.3158
56.969052 103.219 -150.9027
57.381873 103.079 -151.4633
57.797686 102.937 -151.9976
58.216512 102.795 -152.5055
58.638373 102.652 -152.9867
59.063291 102.508 -153.4411
59.491288 102.364 -153.8688
59.922386 102.221 -154.2708
60.356608 102.077 -154.6480
60.793977 101.934 -155.0021
61.234515 101.793 -155.3348
61.678246 101.652 -155.6478
62.125192 101.514 -155.9427
62.575377 101.378 -156.2209
63.028824 101.245 -156.4836
63.485557 101.115 -156.7316
63.945599 100.990 -156.9653
64.408975 100.869 -157.1852
64.875709 100.754 -157.3918
65.345825 100.644 -157.5857
65.819348 100.540 -157.7680
66.296302 100.442 -157.9398
66.776713 100.351 -158.1024
67.260604 100.266 -158.2571
67.748002 100.188 -158.4049
68.238932 100.115 -158.5468
68.733420 100.049 -158.6840
69.231490 99.988 -158.8177
69.733170 99.933 -158.9493
70.238485 99.882 -159.0804
70.747463 99.836 -159.2128
71.260128 99.794 -159.3480
71.776508 99.756 -159.4875
72.296630 99.722 -159.6323
72.820521 99.690 -159.7831
73.348209 99.661 -159.9404
73.879720 99.634 -160.1047
74.415083 99.610 -160.2765
74.954326 99.587 -160.4563
75.497475 99.565 -160.6444
76.044561 99.544 -160.8411
76.595612 99.523 -161.0465
77.150655 99.502 -161.2601
77.709720 99.480 -161.4815
78.272837 99.456 -161.7098
78.840034 99.430 -161.9442
79.411342 99.402 -162.1840
79.986789 99.371 -162.4287
80.566406 99.336 -162.6777
81.150224 99.298 -162.9307
81.738272 99.257 -163.1874
82.330581 99.213 -163.4476
82.927182 99.166 -163.7109
83.528107 99.119 -163.9775
84.133386 99.072 -164.2473
84.743051 99.029 -164.5203
85.357134 98.990 -164.7968
85.975667 98.959 -165.0764
86.598682 98.940 -165.3589
87.226212 98.936 -165.6437
87.858289 98.950 -165.9300
88.494946 98.984 -166.2173
89.136217 99.041 -166.5047
89.782135 99.121 -166.7915
90.432733 99.223 -167.0770
91.088046 99.346 -167.3602
91.748108 99.486 -167.6402
92.412952 99.639 -167.9161
93.082615 99.800 -168.1871
93.757130 99.962 -168.4524
94.436533 100.122 -168.7110
95.120859 100.274 -168.9621
95.810144 100.414 -169.2048
96.504423 100.539 -169.4381
97.203734 100.647 -169.6611
97.908112 100.738 -169.8730
98.617595 100.811 -170.0728
99.332219 100.867 -170.2603
100.052021 100.908 -170.4354
100.777039 100.937 -170.5987
101.507311 100.955 -170.7509
102.242875 100.965 -170.8931
102.983769 100.968 -171.0261
103.730032 100.966 -171.1506
104.481702 100.960 -171.2667
105.238820 100.949 -171.3744
106.001424 100.934 -171.4734
106.769554 100.912 -171.5634
107.543250 100.884 -171.6445
108.322553 100.846 -171.7171
109.107503 100.798 -171.7822
109.898141 100.739 -171.8410
110.694508 100.668 -171.8949
111.496646 100.584 -171.9454
112.304596 100.488 -171.9940
113.118402 100.381 -172.0421
113.938104 100.264 -172.0912
114.763747 100.140 -172.1420
115.595372 100.010 -172.1954
116.433024 99.876 -172.2512
117.276746 99.741 -172.3091
118.126581 99.606 -172.3688
118.982575 99.474 -172.4299
119.844772 99.345 -172.4923
120.713217 99.220 -172.5563
121.587954 99.098 -172.6225
122.469031 98.979 -172.6917
123.356492 98.863 -172.7647
124.250384 98.747 -172.8427
125.150753 98.630 -172.9270
126.057647 98.510 -173.0189
126.971113 98.386 -173.1192
127.891198 98.257 -173.2288
128.817950 98.121 -173.3476
129.751418 97.978 -173.4753
130.691651 97.827 -173.6110
131.638696 97.670 -173.7532
132.592604 97.507 -173.9006
133.553425 97.341 -174.0517
134.521208 97.173 -174.2055
135.496004 97.006 -174.3610
136.477864 96.844 -174.5173
137.466839 96.690 -174.6734
138.462981 96.547 -174.8282
139.466340 96.419 -174.9802
140.476971 96.307 -175.1279
141.494925 96.211 -175.2696
142.520256 96.133 -175.4033
143.553016 96.069 -175.5271
144.593260 96.017 -175.6390
145.641043 95.974 -175.7371
146.696418 95.936 -175.8196
147.759441 95.899 -175.8851
148.830166 95.859 -175.9317
149.908651 95.814 -175.9578
150.994951 95.761 -175.9616
152.089123 95.699 -175.9412
153.191223 95.629 -175.8950
154.301310 95.551 -175.8213
155.419441 95.466 -175.7190
156.545674 95.377 -175.5867
157.680069 95.285 -175.4234
158.822683 95.193 -175.2279
159.973578 95.103 -174.9991
161.132813 95.015 -174.7361
162.300447 94.931 -174.4387
163.476543 94.852 -174.1069
164.661162 94.779 -173.7416
165.854364 94.713 -173.3442
167.056213 94.653 -172.9167
168.266772 94.602 -172.4618
169.486102 94.558 -171.9823
170.714268 94.524 -171.4810
171.951334 94.499 -170.9612
173.197364 94.483 -170.4261
174.452424 94.478 -169.8788
175.716578 94.482 -169.3227
176.989893 94.495 -168.7610
178.272434 94.515 -168.1971
179.564270 94.543 -167.6344
180.865467 94.576 -167.0763
182.176092 94.613 -166.5259
183.496216 94.652 -165.9858
184.825905 94.694 -165.4584
186.165229 94.736 -164.9455
187.514259 94.780 -164.4488
188.873065 94.824 -163.9694
190.241717 94.868 -163.5083
191.620287 94.914 -163.0658
193.008847 94.961 -162.6423
194.407468 95.010 -162.2377
195.816225 95.060 -161.8519
197.235190 95.112 -161.4847
198.664438 95.164 -161.1358
200.104042 95.216 -160.8047
201.554078 95.267 -160.4906
203.014622 95.317 -160.1922
204.485750 95.364 -159.9083
205.967538 95.408 -159.6374
207.460064 95.448 -159.3783
208.963405 95.484 -159.1293
210.477640 95.516 -158.8893
212.002848 95.544 -158.6568
213.539108 95.569 -158.4306
215.086500 95.591 -158.2098
216.645105 95.610 -157.9936
218.215005 95.627 -157.7815
219.796281 95.642 -157.5731
221.389015 95.654 -157.3684
222.993292 95.663 -157.1671
224.609193 95.670 -156.9690
226.236804 95.672 -156.7739
227.876209 95.670 -156.5811
229.527494 95.663 -156.3901
231.190745 95.651 -156.2000
232.866048 95.634 -156.0103
234.553491 95.613 -155.8202
236.253163 95.588 -155.6293
237.965150 95.559 -155.4375
239.689544 95.529 -155.2450
241.426433 95.497 -155.0524
243.175909 95.466 -154.8603
244.938062 95.436 -154.6692
246.712984 95.409 -154.4795
248.500768 95.385 -154.2911
250.301507 95.365 -154.1037
252.115295 95.350 -153.9171
253.942226 95.342 -153.7310
255.782396 95.339 -153.5459
257.635901 95.345 -153.3625
259.502837 95.358 -153.1820
261.383301 95.380 -153.0067
263.277392 95.410 -152.8390
265.185209 95.450 -152.6822
267.106850 95.498 -152.5399
269.042417 95.554 -152.4158
270.992009 95.619 -152.3139
272.955729 95.690 -152.2377
274.933678 95.767 -152.1905
276.925961 95.848 -152.1744
278.932681 95.933 -152.1908
280.953942 96.020 -152.2400
282.989850 96.109 -152.3217
285.040511 96.200 -152.4352
287.106032 96.291 -152.5790
289.186521 96.383 -152.7516
291.282086 96.477 -152.9506
293.392836 96.571 -153.1734
295.518881 96.667 -153.4166
297.660333 96.764 -153.6761
299.817302 96.861 -153.9472
301.989902 96.958 -154.2248
304.178245 97.052 -154.5038
306.382446 97.143 -154.7789
308.602620 97.230 -155.0453
310.838882 97.310 -155.2988
313.091348 97.382 -155.5355
315.360137 97.446 -155.7522
317.645367 97.501 -155.9458
319.947156 97.546 -156.1142
322.265625 97.580 -156.2556
324.600895 97.604 -156.3688
326.953086 97.618 -156.4534
329.322323 97.622 -156.5092
331.708729 97.616 -156.5372
334.112427 97.600 -156.5385
336.533543 97.575 -156.5152
338.972204 97.543 -156.4697
341.428536 97.504 -156.4050
343.902668 97.459 -156.3245
346.394729 97.411 -156.2319
348.904848 97.361 -156.1308
351.433156 97.311 -156.0249
353.979786 97.263 -155.9177
356.544869 97.221 -155.8126
359.128540 97.188 -155.7130
361.730934 97.165 -155.6217
364.352185 97.157 -155.5414
366.992431 97.164 -155.4744
369.651810 97.190 -155.4227
372.330459 97.234 -155.3880
375.028519 97.299 -155.3713
377.746130 97.382 -155.3735
380.483434 97.483 -155.3951
383.240574 97.599 -155.4364
386.017693 97.729 -155.4972
388.814937 97.868 -155.5771
391.632450 98.014 -155.6757
394.470380 98.165 -155.7921
397.328875 98.316 -155.9254
400.208084 98.467 -156.0745
403.108157 98.615 -156.2385
406.029245 98.760 -156.4165
408.971500 98.900 -156.6075
411.935076 99.036 -156.8110
414.920127 99.167 -157.0264
417.926810 99.295 -157.2533
420.955280 99.420 -157.4914
424.005695 99.542 -157.7402
427.078215 99.663 -157.9995
430.173000 99.783 -158.2689
433.290211 99.902 -158.5479
436.430010 100.019 -158.8363
439.592562 100.134 -159.1336
442.778031 100.246 -159.4397
445.986583 100.354 -159.7543
449.218386 100.455 -160.0774
452.473607 100.549 -160.4091
455.752418 100.634 -160.7495
459.054987 100.708 -161.0987
462.381489 100.770 -161.4568
465.732096 100.821 -161.8239
469.106983 100.859 -162.2000
472.506325 100.884 -162.5847
475.930301 100.897 -162.9778
479.379088 100.899 -163.3788
482.852867 100.891 -163.7868
486.351817 100.872 -164.2010
489.876123 100.845 -164.6199
493.425968 100.810 -165.0418
497.001536 100.767 -165.4647
500.603014 100.717 -165.8863
504.230589 100.660 -166.3037
507.884452 100.596 -166.7140
511.564792 100.524 -167.1138
515.271802 100.446 -167.4996
519.005673 100.361 -167.8676
522.766602 100.271 -168.2144
526.554785 100.177 -168.5367
530.370418 100.081 -168.8315
534.213700 99.986 -169.0971
538.084833 99.895 -169.3322
541.984018 99.809 -169.5371
545.911457 99.731 -169.7128
549.867357 99.664 -169.8617
553.851922 99.607 -169.9871
557.865362 99.561 -170.0929
561.907884 99.526 -170.1837
565.979700 99.500 -170.2640
570.081022 99.481 -170.3385
574.212064 99.466 -170.4116
578.373042 99.454 -170.4873
582.564171 99.442 -170.5693
586.785671 99.429 -170.6605
591.037762 99.412 -170.7635
595.320665 99.390 -170.8806
599.634604 99.362 -171.0136
603.979804 99.328 -171.1637
608.356491 99.287 -171.3322
612.764893 99.239 -171.5197
617.205240 99.185 -171.7270
621.677763 99.125 -171.9545
626.182696 99.061 -172.2025
630.720274 98.992 -172.4714
635.290733 98.921 -172.7612
639.894312 98.849 -173.0719
644.531250 98.777 -173.4028
649.201789 98.705 -173.7532
653.906173 98.635 -174.1217
658.644647 98.567 -174.5063
663.417457 98.499 -174.9044
668.224854 98.431 -175.3125
673.067086 98.362 -175.7263
677.944408 98.289 -176.1404
682.857073 98.210 -176.5484
687.805336 98.123 -176.9427
692.789457 98.027 -177.3148
697.809695 97.920 -177.6550
702.866312 97.801 -177.9533
707.959571 97.669 -178.1991
713.089738 97.525 -178.3818
718.257080 97.367 -178.4915
723.461867 97.198 -178.5190
728.704370 97.019 -178.4563
733.984862 96.831 -178.2971
739.303619 96.636 -178.0360
744.660918 96.437 -177.6691
750.057038 96.235 -177.1937
755.492260 96.034 -176.6080
760.966869 95.835 -175.9115
766.481148 95.639 -175.1048
772.035387 95.450 -174.1903
777.629873 95.268 -173.1726
783.264900 95.095 -172.0590
788.940760 94.933 -170.8600
794.657750 94.781 -169.5895
800.416168 94.641 -168.2648
806.216313 94.512 -166.9052
812.058489 94.395 -165.5313
817.943000 94.290 -164.1635
823.870152 94.196 -162.8209
829.840255 94.113 -161.5199
835.853619 94.039 -160.2742
841.910559 93.975 -159.0938
848.011390 93.919 -157.9857
854.156430 93.872 -156.9535
860.346000 93.832 -155.9979
866.580422 93.800 -155.1171
872.860020 93.774 -154.3070
879.185124 93.755 -153.5620
885.556062 93.742 -152.8755
891.973166 93.736 -152.2407
898.436771 93.738 -151.6509
904.947215 93.748 -151.1006
911.504835 93.767 -150.5854
918.109975 93.797 -150.1030
924.762978 93.837 -149.6526
931.464192 93.889 -149.2353
938.213966 93.952 -148.8532
945.012651 94.025 -148.5091
951.860602 94.109 -148.2058
958.758176 94.202 -147.9455
965.705733 94.301 -147.7294
972.703635 94.406 -147.5575
979.752246 94.515 -147.4285
986.851935 94.627 -147.3400
994.003071 94.739 -147.2885
1001.206027 94.852 -147.2699
1008.461179 94.965 -147.2792
1015.768904 95.079 -147.3112
1023.129584 95.193 -147.3608
1030.543603 95.308 -147.4225
1038.011347 95.425 -147.4916
1045.533205 95.546 -147.5639
1053.109569 95.671 -147.6367
1060.740836 95.801 -147.7093
1068.427401 95.935 -147.7834
1076.169666 96.075 -147.8634
1083.968035 96.217 -147.9556
1091.822915 96.360 -148.0663
1099.734713 96.501 -148.2007
1107.703844 96.637 -148.3613
1115.730723 96.765 -148.5469
1123.815768 96.882 -148.7523
1131.959400 96.985 -148.9684
1140.162045 97.074 -149.1829
1148.424129 97.149 -149.3810
1156.746083 97.210 -149.5475
1165.128342 97.260 -149.6681
1173.571343 97.301 -149.7312
1182.075524 97.338 -149.7300
1190.641331 97.374 -149.6627
1199.269209 97.413 -149.5334
1207.959608 97.458 -149.3510
1216.712981 97.512 -149.1282
1225.529785 97.575 -148.8799
1234.410479 97.648 -148.6213
1243.355526 97.730 -148.3668
1252.365393 97.819 -148.1289
1261.440549 97.914 -147.9173
1270.581467 98.013 -147.7386
1279.788624 98.113 -147.5965
1289.062500 98.213 -147.4919
1298.403578 98.313 -147.4235
1307.812346 98.410 -147.3882
1317.289293 98.506 -147.3824
1326.834914 98.599 -147.4024
1336.449707 98.692 -147.4459
1346.134173 98.783 -147.5126
1355.888816 98.875 -147.6059
1365.714145 98.967 -147.7328
1375.610673 99.058 -147.9030
1385.578915 99.148 -148.1275
1395.619391 99.235 -148.4164
1405.732624 99.317 -148.7776
1415.919142 99.392 -149.2159
1426.179476 99.458 -149.7328
1436.514160 99.514 -150.3266
1446.923734 99.557 -150.9930
1457.408740 99.588 -151.7247
1467.969724 99.605 -152.5124
1478.607238 99.608 -153.3445
1489.321836 99.595 -154.2076
1500.114076 99.566 -155.0861
1510.984521 99.520 -155.9621
1521.933737 99.457 -156.8152
1532.962297 99.375 -157.6224
1544.070773 99.275 -158.3579
1555.259747 99.157 -158.9942
1566.529800 99.022 -159.5022
1577.881521 98.873 -159.8541
1589.315501 98.713 -160.0250
1600.832336 98.545 -159.9960
1612.432627 98.376 -159.7564
1624.116978 98.210 -159.3051
1635.886000 98.054 -158.6510
1647.740304 97.912 -157.8118
1659.680509 97.789 -156.8140
1671.707238 97.689 -155.6909
1683.821118 97.615 -154.4808
1696.022780 97.568 -153.2244
1708.312860 97.549 -151.9616
1720.692000 97.556 -150.7289
1733.160843 97.586 -149.5566
1745.720041 97.638 -148.4675
1758.370248 97.706 -147.4765
1771.112124 97.787 -146.5906
1783.946332 97.876 -145.8109
1796.873543 97.970 -145.1331
1809.894429 98.067 -144.5509
1823.009670 98.163 -144.0566
1836.219950 98.257 -143.6432
1849.525956 98.347 -143.3039
1862.928384 98.432 -143.0317
1876.427931 98.510 -142.8180
1890.025301 98.582 -142.6532
1903.721204 98.646 -142.5269
1917.516352 98.704 -142.4295
1931.411466 98.755 -142.3529
1945.407270 98.800 -142.2914
1959.504493 98.838 -142.2410
1973.703870 98.871 -142.1986
1988.006142 98.896 -142.1616
2002.412054 98.915 -142.1276
2016.922357 98.925 -142.0947
2031.537808 98.928 -142.0621
2046.259169 98.923 -142.0304
2061.087206 98.909 -142.0018
2076.022694 98.886 -141.9800
2091.066410 98.856 -141.9686
2106.219139 98.817 -141.9705
2121.481671 98.769 -141.9874
2136.854802 98.714 -142.0192
2152.339333 98.652 -142.0648
2167.936071 98.584 -142.1230
2183.645829 98.512 -142.1928
2199.469427 98.435 -142.2745
2215.407689 98.357 -142.3694
2231.461446 98.278 -142.4797
2247.631536 98.198 -142.6083
2263.918800 98.117 -142.7577
2280.324089 98.036 -142.9298
2296.848258 97.953 -143.1256
2313.492167 97.868 -143.3449
2330.256685 97.779 -143.5863
2347.142685 97.684 -143.8468
2364.151049 97.583 -144.1217
2381.282662 97.472 -144.4036
2398.538418 97.351 -144.6827
2415.919216 97.218 -144.9454
2433.425962 97.071 -145.1735
2451.059570 96.908 -145.3427
2468.820958 96.729 -145.4213
2486.711052 96.532 -145.3700
2504.730786 96.321 -145.1422
2522.881098 96.098 -144.6872
2541.162934 95.868 -143.9547
2559.577248 95.641 -142.9027
2578.125000 95.427 -141.5067
2596.807157 95.239 -139.7695
2615.624692 95.091 -137.7284
2634.578586 94.994 -135.4555
2653.669829 94.955 -133.0488
2672.899414 94.979 -130.6156
2692.268345 95.063 -128.2532
2711.777632 95.200 -126.0348
2731.428290 95.383 -124.0045
2751.221345 95.602 -122.1791
2771.157829 95.849 -120.5561
2791.238781 96.117 -119.1233
2811.465248 96.399 -117.8668
2831.838284 96.690 -116.7766
2852.358952 96.986 -115.8480
2873.028321 97.281 -115.0802
2893.847468 97.570 -114.4728
2914.817480 97.850 -114.0219
2935.939449 98.115 -113.7173
2957.214476 98.363 -113.5421
2978.643672 98.591 -113.4741
3000.228152 98.798 -113.4883
3021.969041 98.987 -113.5601
3043.867475 99.158 -113.6691
3065.924593 99.314 -113.8006
3088.141547 99.458 -113.9478
3110.519493 99.594 -114.1116
3133.059600 99.723 -114.2988
3155.763041 99.848 -114.5202
3178.631001 99.969 -114.7875
3201.664672 100.087 -115.1121
3224.865254 100.200 -115.5040
3248.233957 100.309 -115.9708
3271.771999 100.412 -116.5189
3295.480608 100.507 -117.1518
3319.361019 100.592 -117.8709
3343.414477 100.664 -118.6732
3367.642236 100.720 -119.5508
3392.045560 100.757 -120.4889
3416.625721 100.771 -121.4652
3441.383999 100.761 -122.4488
3466.321686 100.723 -123.4008
3491.440082 100.658 -124.2744
3516.740496 100.567 -125.0173
3542.224247 100.454 -125.5760
3567.892664 100.326 -125.9021
3593.747085 100.193 -125.9624
3619.788858 100.065 -125.7479
3646.019340 99.956 -125.2803
3672.439900 99.875 -124.6102
3699.051913 99.830 -123.8059
3725.856768 99.824 -122.9386
3752.855862 99.855 -122.0684
3780.050603 99.922 -121.2384
3807.442408 100.020 -120.4769
3835.032705 100.145 -119.8031
3862.822933 100.293 -119.2328
3890.814540 100.459 -118.7796
3919.008986 100.638 -118.4525
3947.407741 100.826 -118.2545
3976.012284 101.019 -118.1820
4004.824108 101.212 -118.2275
4033.844715 101.403 -118.3826
4063.075616 101.589 -118.6397
4092.518337 101.769 -118.9924
4122.174412 101.940 -119.4334
4152.045387 102.100 -119.9525
4182.132820 102.247 -120.5360
4212.438278 102.381 -121.1684
4242.963342 102.501 -121.8345
4273.709604 102.609 -122.5222
4304.678665 102.703 -123.2225
4335.872141 102.786 -123.9278
4367.291658 102.855 -124.6307
4398.938854 102.911 -125.3217
4430.815378 102.955 -125.9903
4462.922893 102.986 -126.6260
4495.263072 103.006 -127.2204
4527.837601 103.016 -127.7681
4560.648179 103.017 -128.2664
4593.696515 103.011 -128.7151
4626.984334 102.998 -129.1159
4660.513370 102.981 -129.4724
4694.285371 102.961 -129.7894
4728.302098 102.938 -130.0719
4762.565324 102.915 -130.3241
4797.076835 102.892 -130.5487
4831.838432 102.871 -130.7471
4866.851925 102.853 -130.9200
4902.119140 102.841 -131.0685
4937.641916 102.837 -131.1955
4973.422105 102.843 -131.3059
5009.461572 102.861 -131.4078
5045.762195 102.894 -131.5126
5082.325868 102.942 -131.6338
5119.154496 103.006 -131.7865
5156.250000 103.086 -131.9847
5193.614313 103.182 -132.2396
5231.249383 103.291 -132.5596
5269.157173 103.413 -132.9509
5307.339658 103.547 -133.4193
5345.798829 103.693 -133.9710
5384.536691 103.849 -134.6133
5423.555263 104.015 -135.3530
5462.856580 104.190 -136.1969
5502.442691 104.373 -137.1519
5542.315659 104.565 -138.2266
5582.477563 104.764 -139.4325
5622.930497 104.970 -140.7835
5663.676569 105.181 -142.2948
5704.717904 105.394 -143.9793
5746.056642 105.606 -145.8458
5787.694937 105.813 -147.8973
5829.634960 106.012 -150.1325
5871.878898 106.200 -152.5460
5914.428953 106.372 -155.1296
5957.287343 106.525 -157.8725
6000.456303 106.656 -160.7616
6043.938083 106.762 -163.7824
6087.734950 106.839 -166.9189
6131.849187 106.883 -170.1529
6176.283094 106.892 -173.4647
6221.038987 106.863 -176.8319
6266.119200 106.791 179.7703
6311.526083 106.675 176.3692
6357.262002 106.513 172.9948
6403.329344 106.302 169.6788
6449.730508 106.044 166.4535
6496.467914 105.738 163.3494
6543.543998 105.387 160.3929
6590.961215 104.994 157.6036
6638.722037 104.564 154.9932
6686.828954 104.099 152.5659
6735.284473 103.605 150.3228
6784.091120 103.085 148.2652
6833.251441 102.539 146.3974
6882.767998 101.971 144.7271
6932.643372 101.383 143.2653
6982.880164 100.776 142.0268
7033.480992 100.153 141.0293
7084.448495 99.515 140.2944
7135.785329 98.866 139.8480
7187.494171 98.209 139.7206
7239.577717 97.547 139.9485
7292.038681 96.887 140.5709
7344.879799 96.235 141.6281
7398.103826 95.600 143.1544
7451.713536 94.993 145.1694
7505.711724 94.430 147.6622
7560.101205 93.924 150.5726
7614.884815 93.491 153.7773
7670.065409 93.142 157.0905
7725.645865 92.882 160.2888
7781.629080 92.707 163.1542
7838.017972 92.604 165.5192
7894.815481 92.554 167.2927
7952.024569 92.535 168.4656
8009.648217 92.528 169.1015
8067.689429 92.516 169.3271
8126.151233 92.489 169.3301
8185.036674 92.446 169.3741
8244.348824 92.396 169.8393
8304.090774 92.358 171.3104
8364.265639 92.356 174.7556
8424.876556 92.422 -178.1872
8485.926684 92.584 -165.2222
8547.419207 92.861 -145.8762
8609.357330 93.255 -126.2117
8671.744282 93.752 -112.9060
8734.583316 94.328 -106.0154
8797.877707 94.953 -103.2576
8861.630756 95.602 -102.9346
8925.845785 96.255 -104.0636
8990.526143 96.897 -106.0884
9055.675202 97.517 -108.6854
9121.296357 98.110 -111.6608
9187.393031 98.671 -114.8971
9253.968668 99.197 -118.3224
9321.026740 99.684 -121.8914
9388.570742 100.129 -125.5734
9456.604196 100.527 -129.3436
9525.130648 100.877 -133.1768
9594.153671 101.175 -137.0449
9663.676863 101.423 -140.9152
9733.703850 101.624 -144.7542
9804.238280 101.788 -148.5343
9875.283832 101.926 -152.2446
9946.844210 102.053 -155.8981
10018.923143 102.184 -159.5321
10091.524390 102.329 -163.2010
10164.651736 102.494 -166.9672
10238.308993 102.677 -170.8925
10312.500000 102.872 -175.0295
10387.228626 103.068 -179.4161
10462.498767 103.252 175.9276
10538.314345 103.407 171.0017
10614.679315 103.521 165.8265
10691.597657 103.580 160.4411
10769.073381 103.574 154.9007
10847.110526 103.496 149.2714
10925.713161 103.341 143.6237
11004.885382 103.111 138.0247
11084.631318 102.807 132.5324
11164.955126 102.436 127.1914
11245.860993 102.003 122.0319
11327.353138 101.517 117.0685
11409.435808 100.985 112.3018
11492.113283 100.417 107.7192
11575.389873 99.821 103.2979
11659.269920 99.207 99.0053
11743.757796 98.582 94.8018
11828.857906 97.959 90.6411
11914.574686 97.345 86.4702
12000.912606 96.754 82.2299
12087.876166 96.195 77.8561
12175.469900 95.679 73.2808
12263.698373 95.213 68.4342
12352.566187 94.804 63.2458
12442.077974 94.453 57.6448
12532.238400 94.156 51.5593
12623.052165 93.905 44.9150
12714.524005 93.686 37.6339
12806.658687 93.484 29.6307
12899.461015 93.280 20.8066
12992.935827 93.058 11.0386
13087.087996 92.803 0.1625
13181.922430 92.502 -12.0426
13277.444074 92.150 -25.8578
13373.657907 91.742 -41.5692
13470.568945 91.280 -59.2812
13568.182241 90.767 -78.5829
13666.502883 90.209 -98.3421
13765.535996 89.613 -117.0958
13865.286744 88.987 -133.8115
13965.760328 88.340 -148.1904
14066.961984 87.682 -160.4147
14168.896989 87.020 -170.8173
14271.570658 86.368 -179.7071
14374.988342 85.738 172.6844
14479.155433 85.148 166.2048
14584.077362 84.623 160.7646
14689.759598 84.196 156.3169
14796.207652 83.907 152.8298
14903.427072 83.799 150.2544
15011.423448 83.902 148.4829
15120.202410 84.226 147.3124
15229.769630 84.750 146.4349
15340.130819 85.433 145.4730
15451.291730 86.223 144.0565
15563.258160 87.073 141.8969
15676.035944 87.942 138.8242
15789.630962 88.802 134.7791
15904.049137 89.630 129.7791
16019.296433 90.412 123.8849
16135.378859 91.137 117.1746
16252.302465 91.797 109.7294
16370.073348 92.384 101.6285
16488.697648 92.894 92.9482
16608.181548 93.323 83.7648
16728.531278 93.669 74.1561
16849.753112 93.935 64.2028
16971.853368 94.124 53.9875
17094.838414 94.248 43.5916
17218.714660 94.321 33.0894
17343.488565 94.368 22.5426
17469.166632 94.414 11.9913
17595.755415 94.490 1.4469
17723.261512 94.623 -9.1140
17851.691571 94.831 -19.7512
17981.052287 95.117 -30.5559
18111.350404 95.466 -41.6390
18242.592715 95.857 -53.1173
18374.786062 96.259 -65.1028
18507.937336 96.646 -77.7059
18642.053479 96.992 -91.0588
18777.141484 97.284 -105.3701
18913.208391 97.512 -121.0180
19050.261296 97.672 -138.6875
19188.307342 97.770 -159.4473
19327.353727 97.814 175.8103
19467.407699 97.815 148.5696
19608.476560 97.789 123.8596
19750.567664 97.752 105.6837
19893.688419 97.717 94.4062
20037.846286 97.697 89.0846
