* Measurement data measured by REW V5.31.3
* Source: EXCL: Headset (USB-C to 3.5mm Headphone Jack Adapter), MICROPHONE (Master Volume), 0, volume: 0.260
* Format: 256k Log Swept Sine, 1 sweep at -12.0 dBFS with no timing reference
* Dated: Feb 10, 2025 1:55:47 PM
* REW Settings:
*  C-weighting compensation: Off
*  Target level: 75.0 dB
* Note: ; 
* Measurement: Maxwell (WC FreeZe) R7
* Smoothing: 1/6 octave
* Frequency Step: 96 ppo
* Start Frequency: 20.0 Hz
*
* Freq(Hz) SPL(dB) Phase(degrees)
20.141602 98.056 29.3909
20.287556 98.099 28.8297
20.434568 98.155 28.0788
20.582645 98.220 27.1576
20.731796 98.289 26.0876
20.882027 98.360 24.8907
21.033346 98.429 23.5878
21.185763 98.494 22.1990
21.339284 98.555 20.7427
21.493917 98.612 19.2362
21.649671 98.664 17.6951
21.806553 98.712 16.1336
21.964572 98.759 14.5647
22.123737 98.805 12.9997
22.284054 98.852 11.4480
22.445534 98.901 9.9174
22.608183 98.954 8.4136
22.772012 99.012 6.9401
22.937027 99.075 5.4986
23.103238 99.144 4.0886
23.270654 99.219 2.7078
23.439282 99.302 1.3528
23.609133 99.391 0.0186
23.780215 99.487 -1.3004
23.952536 99.589 -2.6101
24.126106 99.697 -3.9168
24.300934 99.810 -5.2261
24.477028 99.927 -6.5436
24.654399 100.047 -7.8740
24.833055 100.169 -9.2212
25.013005 100.293 -10.5882
25.194260 100.416 -11.9773
25.376828 100.538 -13.3897
25.560719 100.657 -14.8257
25.745942 100.772 -16.2849
25.932508 100.883 -17.7657
26.120426 100.990 -19.2663
26.309705 101.090 -20.7837
26.500356 101.185 -22.3149
26.692388 101.273 -23.8563
26.885812 101.355 -25.4042
27.080638 101.430 -26.9551
27.276876 101.500 -28.5059
27.474535 101.565 -30.0536
27.673627 101.625 -31.5961
27.874161 101.683 -33.1320
28.076149 101.740 -34.6604
28.279600 101.799 -36.1811
28.484526 101.862 -37.6946
28.690937 101.932 -39.2015
28.898843 102.011 -40.7030
29.108256 102.102 -42.2000
29.319186 102.206 -43.6934
29.531645 102.323 -45.1840
29.745644 102.453 -46.6719
29.961193 102.594 -48.1569
30.178304 102.744 -49.6384
30.396989 102.897 -51.1149
30.617258 103.050 -52.5849
30.839123 103.198 -54.0462
31.062596 103.336 -55.4968
31.287688 103.459 -56.9343
31.514412 103.561 -58.3569
31.742778 103.641 -59.7629
31.972800 103.693 -61.1513
32.204488 103.716 -62.5219
32.437855 103.708 -63.8749
32.672913 103.670 -65.2112
32.909674 103.600 -66.5323
33.148151 103.502 -67.8397
33.388356 103.376 -69.1351
33.630302 103.225 -70.4198
33.874001 103.053 -71.6945
34.119466 102.865 -72.9597
34.366710 102.663 -74.2150
34.615745 102.454 -75.4595
34.866585 102.241 -76.6917
35.119243 102.029 -77.9100
35.373731 101.823 -79.1122
35.630064 101.627 -80.2962
35.888254 101.444 -81.4598
36.148315 101.278 -82.6012
36.410261 101.132 -83.7184
36.674104 101.007 -84.8102
36.939860 100.905 -85.8756
37.207542 100.827 -86.9140
37.477163 100.772 -87.9256
37.748738 100.742 -88.9109
38.022281 100.735 -89.8712
38.297806 100.751 -90.8080
38.575327 100.788 -91.7237
38.854860 100.847 -92.6208
39.136419 100.926 -93.5025
39.420017 101.025 -94.3722
39.705671 101.142 -95.2333
39.993395 101.277 -96.0897
40.283203 101.429 -96.9447
40.575112 101.598 -97.8013
40.869136 101.781 -98.6623
41.165290 101.978 -99.5298
41.463591 102.186 -100.4054
41.764053 102.405 -101.2906
42.066693 102.632 -102.1866
42.371525 102.864 -103.0945
42.678567 103.099 -104.0153
42.987834 103.333 -104.9501
43.299341 103.564 -105.8999
43.613106 103.789 -106.8657
43.929145 104.005 -107.8487
44.247473 104.210 -108.8501
44.568109 104.403 -109.8712
44.891068 104.580 -110.9135
45.216367 104.741 -111.9781
45.544023 104.884 -113.0660
45.874054 105.007 -114.1772
46.206476 105.111 -115.3112
46.541307 105.193 -116.4664
46.878565 105.253 -117.6401
47.218266 105.292 -118.8288
47.560429 105.309 -120.0286
47.905072 105.305 -121.2347
48.252212 105.281 -122.4424
48.601867 105.237 -123.6471
48.954056 105.175 -124.8443
49.308798 105.097 -126.0298
49.666109 105.005 -127.1999
50.026010 104.900 -128.3513
50.388520 104.784 -129.4811
50.753656 104.660 -130.5865
51.121437 104.529 -131.6650
51.491884 104.394 -132.7143
51.865016 104.255 -133.7325
52.240851 104.116 -134.7173
52.619410 103.976 -135.6673
53.000712 103.837 -136.5808
53.384777 103.701 -137.4567
53.771625 103.566 -138.2947
54.161276 103.432 -139.0948
54.553751 103.300 -139.8579
54.949070 103.169 -140.5856
55.347254 103.038 -141.2800
55.748323 102.906 -141.9433
56.152298 102.773 -142.5777
56.559201 102.638 -143.1847
56.969052 102.502 -143.7654
57.381873 102.364 -144.3199
57.797686 102.225 -144.8482
58.216512 102.084 -145.3495
58.638373 101.941 -145.8230
59.063291 101.798 -146.2685
59.491288 101.654 -146.6860
59.922386 101.510 -147.0766
60.356608 101.366 -147.4420
60.793977 101.224 -147.7843
61.234515 101.082 -148.1060
61.678246 100.943 -148.4090
62.125192 100.805 -148.6953
62.575377 100.671 -148.9664
63.028824 100.539 -149.2234
63.485557 100.410 -149.4673
63.945599 100.285 -149.6986
64.408975 100.165 -149.9176
64.875709 100.050 -150.1246
65.345825 99.939 -150.3196
65.819348 99.835 -150.5030
66.296302 99.737 -150.6754
66.776713 99.645 -150.8377
67.260604 99.559 -150.9913
67.748002 99.479 -151.1377
68.238932 99.405 -151.2788
68.733420 99.336 -151.4163
69.231490 99.273 -151.5517
69.733170 99.214 -151.6865
70.238485 99.161 -151.8218
70.747463 99.111 -151.9585
71.260128 99.066 -152.0971
71.776508 99.025 -152.2384
72.296630 98.987 -152.3829
72.820521 98.953 -152.5312
73.348209 98.922 -152.6840
73.879720 98.894 -152.8420
74.415083 98.868 -153.0058
74.954326 98.845 -153.1759
75.497475 98.823 -153.3528
76.044561 98.803 -153.5366
76.595612 98.783 -153.7277
77.150655 98.763 -153.9260
77.709720 98.743 -154.1316
78.272837 98.721 -154.3442
78.840034 98.696 -154.5637
79.411342 98.669 -154.7900
79.986789 98.638 -155.0231
80.566406 98.604 -155.2628
81.150224 98.565 -155.5090
81.738272 98.523 -155.7615
82.330581 98.477 -156.0198
82.927182 98.428 -156.2835
83.528107 98.378 -156.5520
84.133386 98.328 -156.8248
84.743051 98.280 -157.1013
85.357134 98.238 -157.3805
85.975667 98.202 -157.6616
86.598682 98.178 -157.9436
87.226212 98.169 -158.2254
87.858289 98.177 -158.5063
88.494946 98.205 -158.7854
89.136217 98.256 -159.0623
89.782135 98.330 -159.3364
90.432733 98.426 -159.6071
91.088046 98.544 -159.8741
91.748108 98.678 -160.1366
92.412952 98.825 -160.3938
93.082615 98.981 -160.6448
93.757130 99.138 -160.8884
94.436533 99.292 -161.1232
95.120859 99.439 -161.3481
95.810144 99.573 -161.5619
96.504423 99.692 -161.7639
97.203734 99.795 -161.9537
97.908112 99.879 -162.1312
98.617595 99.945 -162.2964
99.332219 99.994 -162.4493
100.052021 100.028 -162.5900
100.777039 100.049 -162.7183
101.507311 100.059 -162.8341
102.242875 100.061 -162.9374
102.983769 100.056 -163.0283
103.730032 100.046 -163.1068
104.481702 100.032 -163.1736
105.238820 100.013 -163.2289
106.001424 99.989 -163.2734
106.769554 99.960 -163.3078
107.543250 99.923 -163.3328
108.322553 99.877 -163.3494
109.107503 99.821 -163.3585
109.898141 99.753 -163.3614
110.694508 99.673 -163.3592
111.496646 99.581 -163.3532
112.304596 99.477 -163.3446
113.118402 99.361 -163.3343
113.938104 99.236 -163.3233
114.763747 99.103 -163.3124
115.595372 98.965 -163.3021
116.433024 98.824 -163.2927
117.276746 98.681 -163.2844
118.126581 98.540 -163.2773
118.982575 98.401 -163.2713
119.844772 98.266 -163.2667
120.713217 98.134 -163.2638
121.587954 98.006 -163.2627
122.469031 97.881 -163.2640
123.356492 97.758 -163.2681
124.250384 97.634 -163.2754
125.150753 97.510 -163.2865
126.057647 97.383 -163.3020
126.971113 97.251 -163.3225
127.891198 97.113 -163.3485
128.817950 96.968 -163.3803
129.751418 96.816 -163.4179
130.691651 96.656 -163.4612
131.638696 96.489 -163.5095
132.592604 96.316 -163.5622
133.553425 96.140 -163.6184
134.521208 95.961 -163.6768
135.496004 95.785 -163.7362
136.477864 95.612 -163.7952
137.466839 95.448 -163.8524
138.462981 95.294 -163.9065
139.466340 95.155 -163.9560
140.476971 95.030 -163.9993
141.494925 94.923 -164.0348
142.520256 94.831 -164.0607
143.553016 94.754 -164.0753
144.593260 94.689 -164.0767
145.641043 94.633 -164.0633
146.696418 94.582 -164.0333
147.759441 94.532 -163.9851
148.830166 94.480 -163.9172
149.908651 94.422 -163.8276
150.994951 94.358 -163.7146
152.089123 94.284 -163.5758
153.191223 94.202 -163.4087
154.301310 94.112 -163.2109
155.419441 94.016 -162.9797
156.545674 93.914 -162.7130
157.680069 93.809 -162.4088
158.822683 93.703 -162.0659
159.973578 93.598 -161.6837
161.132813 93.494 -161.2621
162.300447 93.395 -160.8013
163.476543 93.299 -160.3021
164.661162 93.209 -159.7652
165.854364 93.125 -159.1917
167.056213 93.047 -158.5829
168.266772 92.977 -157.9408
169.486102 92.914 -157.2672
170.714268 92.861 -156.5645
171.951334 92.816 -155.8353
173.197364 92.783 -155.0826
174.452424 92.759 -154.3092
175.716578 92.746 -153.5187
176.989893 92.743 -152.7146
178.272434 92.750 -151.9007
179.564270 92.764 -151.0805
180.865467 92.786 -150.2578
182.176092 92.812 -149.4356
183.496216 92.842 -148.6169
184.825905 92.875 -147.8044
186.165229 92.911 -147.0005
187.514259 92.947 -146.2072
188.873065 92.985 -145.4264
190.241717 93.025 -144.6595
191.620287 93.066 -143.9077
193.008847 93.109 -143.1718
194.407468 93.154 -142.4526
195.816225 93.202 -141.7507
197.235190 93.251 -141.0667
198.664438 93.302 -140.4013
200.104042 93.355 -139.7550
201.554078 93.408 -139.1283
203.014622 93.461 -138.5210
204.485750 93.513 -137.9325
205.967538 93.563 -137.3617
207.460064 93.611 -136.8069
208.963405 93.657 -136.2661
210.477640 93.699 -135.7374
212.002848 93.739 -135.2192
213.539108 93.776 -134.7100
215.086500 93.811 -134.2086
216.645105 93.844 -133.7139
218.215005 93.875 -133.2253
219.796281 93.904 -132.7422
221.389015 93.930 -132.2641
222.993292 93.955 -131.7903
224.609193 93.976 -131.3202
226.236804 93.994 -130.8532
227.876209 94.008 -130.3886
229.527494 94.017 -129.9261
231.190745 94.021 -129.4654
232.866048 94.021 -129.0063
234.553491 94.017 -128.5490
236.253163 94.009 -128.0936
237.965150 93.999 -127.6403
239.689544 93.987 -127.1894
241.426433 93.974 -126.7413
243.175909 93.963 -126.2967
244.938062 93.952 -125.8562
246.712984 93.944 -125.4202
248.500768 93.940 -124.9889
250.301507 93.939 -124.5622
252.115295 93.942 -124.1396
253.942226 93.951 -123.7202
255.782396 93.965 -123.3032
257.635901 93.985 -122.8881
259.502837 94.013 -122.4743
261.383301 94.047 -122.0622
263.277392 94.089 -121.6526
265.185209 94.140 -121.2468
267.106850 94.198 -120.8469
269.042417 94.264 -120.4552
270.992009 94.338 -120.0743
272.955729 94.418 -119.7066
274.933678 94.505 -119.3542
276.925961 94.596 -119.0187
278.932681 94.692 -118.7011
280.953942 94.792 -118.4016
282.989850 94.895 -118.1196
285.040511 95.002 -117.8543
287.106032 95.112 -117.6042
289.186521 95.226 -117.3678
291.282086 95.345 -117.1437
293.392836 95.469 -116.9307
295.518881 95.598 -116.7283
297.660333 95.733 -116.5360
299.817302 95.872 -116.3542
301.989902 96.016 -116.1832
304.178245 96.162 -116.0239
306.382446 96.309 -115.8770
308.602620 96.455 -115.7432
310.838882 96.599 -115.6231
313.091348 96.739 -115.5171
315.360137 96.872 -115.4256
317.645367 96.999 -115.3484
319.947156 97.118 -115.2856
322.265625 97.228 -115.2368
324.600895 97.328 -115.2019
326.953086 97.418 -115.1807
329.322323 97.498 -115.1733
331.708729 97.566 -115.1796
334.112427 97.624 -115.1996
336.533543 97.670 -115.2336
338.972204 97.706 -115.2816
341.428536 97.732 -115.3439
343.902668 97.749 -115.4206
346.394729 97.759 -115.5119
348.904848 97.762 -115.6179
351.433156 97.762 -115.7386
353.979786 97.759 -115.8742
356.544869 97.757 -116.0247
359.128540 97.758 -116.1899
361.730934 97.764 -116.3697
364.352185 97.778 -116.5638
366.992431 97.801 -116.7716
369.651810 97.836 -116.9920
372.330459 97.884 -117.2238
375.028519 97.946 -117.4651
377.746130 98.020 -117.7137
380.483434 98.105 -117.9669
383.240574 98.201 -118.2217
386.017693 98.304 -118.4750
388.814937 98.413 -118.7232
391.632450 98.525 -118.9631
394.470380 98.637 -119.1914
397.328875 98.748 -119.4051
400.208084 98.855 -119.6016
403.108157 98.958 -119.7783
406.029245 99.056 -119.9332
408.971500 99.149 -120.0649
411.935076 99.238 -120.1721
414.920127 99.322 -120.2544
417.926810 99.404 -120.3119
420.955280 99.485 -120.3453
424.005695 99.565 -120.3559
427.078215 99.646 -120.3460
430.173000 99.729 -120.3178
433.290211 99.815 -120.2746
436.430010 99.902 -120.2196
439.592562 99.991 -120.1567
442.778031 100.081 -120.0896
445.986583 100.169 -120.0221
449.218386 100.255 -119.9579
452.473607 100.337 -119.9003
455.752418 100.413 -119.8524
459.054987 100.480 -119.8165
462.381489 100.539 -119.7946
465.732096 100.587 -119.7877
469.106983 100.624 -119.7965
472.506325 100.650 -119.8207
475.930301 100.665 -119.8598
479.379088 100.670 -119.9124
482.852867 100.665 -119.9769
486.351817 100.651 -120.0517
489.876123 100.630 -120.1346
493.425968 100.601 -120.2238
497.001536 100.566 -120.3174
500.603014 100.524 -120.4137
504.230589 100.477 -120.5113
507.884452 100.423 -120.6089
511.564792 100.365 -120.7054
515.271802 100.300 -120.7997
519.005673 100.230 -120.8909
522.766602 100.156 -120.9781
526.554785 100.079 -121.0604
530.370418 100.000 -121.1366
534.213700 99.921 -121.2058
538.084833 99.844 -121.2669
541.984018 99.770 -121.3188
545.911457 99.702 -121.3604
549.867357 99.640 -121.3904
553.851922 99.584 -121.4075
557.865362 99.534 -121.4104
561.907884 99.489 -121.3976
565.979700 99.449 -121.3677
570.081022 99.410 -121.3193
574.212064 99.371 -121.2512
578.373042 99.331 -121.1623
582.564171 99.287 -121.0517
586.785671 99.238 -120.9189
591.037762 99.183 -120.7635
595.320665 99.122 -120.5855
599.634604 99.053 -120.3852
603.979804 98.977 -120.1633
608.356491 98.894 -119.9206
612.764893 98.804 -119.6582
617.205240 98.708 -119.3777
621.677763 98.608 -119.0805
626.182696 98.505 -118.7685
630.720274 98.401 -118.4440
635.290733 98.297 -118.1091
639.894312 98.197 -117.7665
644.531250 98.100 -117.4188
649.201789 98.010 -117.0689
653.906173 97.927 -116.7196
658.644647 97.852 -116.3738
663.417457 97.785 -116.0342
668.224854 97.725 -115.7031
673.067086 97.670 -115.3826
677.944408 97.619 -115.0743
682.857073 97.570 -114.7795
687.805336 97.520 -114.4987
692.789457 97.467 -114.2318
697.809695 97.409 -113.9776
702.866312 97.344 -113.7343
707.959571 97.269 -113.4986
713.089738 97.184 -113.2655
718.257080 97.087 -113.0288
723.461867 96.977 -112.7798
728.704370 96.854 -112.5083
733.984862 96.717 -112.2020
739.303619 96.567 -111.8470
744.660918 96.405 -111.4279
750.057038 96.231 -110.9286
755.492260 96.047 -110.3333
760.966869 95.855 -109.6267
766.481148 95.657 -108.7959
772.035387 95.455 -107.8307
777.629873 95.252 -106.7250
783.264900 95.050 -105.4772
788.940760 94.851 -104.0907
794.657750 94.657 -102.5740
800.416168 94.470 -100.9403
806.216313 94.291 -99.2069
812.058489 94.122 -97.3943
817.943000 93.964 -95.5245
823.870152 93.817 -93.6202
829.840255 93.682 -91.7030
835.853619 93.559 -89.7930
841.910559 93.449 -87.9074
848.011390 93.351 -86.0603
854.156430 93.265 -84.2628
860.346000 93.192 -82.5231
866.580422 93.131 -80.8464
872.860020 93.082 -79.2360
879.185124 93.045 -77.6931
885.556062 93.019 -76.2171
891.973166 93.004 -74.8066
898.436771 93.001 -73.4589
904.947215 93.008 -72.1704
911.504835 93.027 -70.9368
918.109975 93.055 -69.7531
924.762978 93.095 -68.6140
931.464192 93.144 -67.5140
938.213966 93.203 -66.4472
945.012651 93.272 -65.4083
951.860602 93.350 -64.3923
958.758176 93.437 -63.3953
965.705733 93.531 -62.4143
972.703635 93.633 -61.4478
979.752246 93.743 -60.4958
986.851935 93.860 -59.5600
994.003071 93.983 -58.6433
1001.206027 94.113 -57.7501
1008.461179 94.249 -56.8852
1015.768904 94.392 -56.0540
1023.129584 94.540 -55.2612
1030.543603 94.695 -54.5111
1038.011347 94.855 -53.8069
1045.533205 95.021 -53.1502
1053.109569 95.190 -52.5414
1060.740836 95.362 -51.9792
1068.427401 95.536 -51.4606
1076.169666 95.710 -50.9812
1083.968035 95.882 -50.5352
1091.822915 96.049 -50.1153
1099.734713 96.211 -49.7135
1107.703844 96.365 -49.3206
1115.730723 96.509 -48.9274
1123.815768 96.644 -48.5248
1131.959400 96.768 -48.1051
1140.162045 96.882 -47.6622
1148.424129 96.987 -47.1928
1156.746083 97.083 -46.6975
1165.128342 97.172 -46.1802
1173.571343 97.256 -45.6481
1182.075524 97.335 -45.1101
1190.641331 97.411 -44.5744
1199.269209 97.482 -44.0468
1207.959608 97.548 -43.5281
1216.712981 97.609 -43.0138
1225.529785 97.663 -42.4938
1234.410479 97.711 -41.9530
1243.355526 97.751 -41.3732
1252.365393 97.786 -40.7353
1261.440549 97.815 -40.0221
1270.581467 97.843 -39.2208
1279.788624 97.871 -38.3257
1289.062500 97.903 -37.3397
1298.403578 97.942 -36.2752
1307.812346 97.991 -35.1524
1317.289293 98.051 -33.9982
1326.834914 98.122 -32.8420
1336.449707 98.205 -31.7129
1346.134173 98.297 -30.6363
1355.888816 98.397 -29.6327
1365.714145 98.502 -28.7163
1375.610673 98.608 -27.8953
1385.578915 98.713 -27.1727
1395.619391 98.814 -26.5473
1405.732624 98.909 -26.0146
1415.919142 98.995 -25.5671
1426.179476 99.072 -25.1958
1436.514160 99.139 -24.8895
1446.923734 99.194 -24.6363
1457.408740 99.239 -24.4230
1467.969724 99.273 -24.2364
1478.607238 99.298 -24.0634
1489.321836 99.314 -23.8921
1500.114076 99.323 -23.7129
1510.984521 99.326 -23.5199
1521.933737 99.326 -23.3114
1532.962297 99.322 -23.0907
1544.070773 99.316 -22.8652
1555.259747 99.306 -22.6453
1566.529800 99.293 -22.4417
1577.881521 99.272 -22.2623
1589.315501 99.242 -22.1098
1600.832336 99.198 -21.9805
1612.432627 99.137 -21.8631
1624.116978 99.058 -21.7392
1635.886000 98.956 -21.5837
1647.740304 98.833 -21.3661
1659.680509 98.686 -21.0518
1671.707238 98.518 -20.6034
1683.821118 98.330 -19.9832
1696.022780 98.128 -19.1548
1708.312860 97.914 -18.0872
1720.692000 97.697 -16.7574
1733.160843 97.483 -15.1544
1745.720041 97.278 -13.2827
1758.370248 97.091 -11.1643
1771.112124 96.926 -8.8377
1783.946332 96.789 -6.3549
1796.873543 96.680 -3.7753
1809.894429 96.600 -1.1585
1823.009670 96.547 1.4427
1836.219950 96.517 3.9869
1849.525956 96.507 6.4451
1862.928384 96.512 8.7994
1876.427931 96.529 11.0403
1890.025301 96.553 13.1639
1903.721204 96.582 15.1716
1917.516352 96.611 17.0700
1931.411466 96.637 18.8721
1945.407270 96.657 20.5971
1959.504493 96.668 22.2699
1973.703870 96.669 23.9186
1988.006142 96.658 25.5725
2002.412054 96.634 27.2597
2016.922357 96.598 29.0051
2031.537808 96.552 30.8283
2046.259169 96.497 32.7422
2061.087206 96.435 34.7513
2076.022694 96.369 36.8514
2091.066410 96.302 39.0302
2106.219139 96.236 41.2693
2121.481671 96.174 43.5469
2136.854802 96.116 45.8412
2152.339333 96.065 48.1330
2167.936071 96.020 50.4064
2183.645829 95.982 52.6499
2199.469427 95.952 54.8557
2215.407689 95.929 57.0199
2231.461446 95.914 59.1421
2247.631536 95.905 61.2253
2263.918800 95.903 63.2741
2280.324089 95.906 65.2940
2296.848258 95.916 67.2888
2313.492167 95.933 69.2601
2330.256685 95.955 71.2062
2347.142685 95.984 73.1221
2364.151049 96.018 75.0002
2381.282662 96.058 76.8309
2398.538418 96.102 78.6035
2415.919216 96.149 80.3073
2433.425962 96.198 81.9324
2451.059570 96.247 83.4707
2468.820958 96.293 84.9173
2486.711052 96.333 86.2720
2504.730786 96.366 87.5408
2522.881098 96.388 88.7367
2541.162934 96.397 89.8803
2559.577248 96.391 90.9994
2578.125000 96.369 92.1288
2596.807157 96.332 93.3106
2615.624692 96.280 94.5932
2634.578586 96.218 96.0304
2653.669829 96.149 97.6784
2672.899414 96.080 99.5901
2692.268345 96.022 101.8062
2711.777632 95.983 104.3452
2731.428290 95.973 107.1932
2751.221345 96.000 110.2989
2771.157829 96.067 113.5776
2791.238781 96.176 116.9252
2811.465248 96.321 120.2379
2831.838284 96.495 123.4309
2852.358952 96.688 126.4495
2873.028321 96.893 129.2709
2893.847468 97.099 131.8984
2914.817480 97.303 134.3535
2935.939449 97.498 136.6667
2957.214476 97.682 138.8703
2978.643672 97.854 140.9934
3000.228152 98.013 143.0583
3021.969041 98.160 145.0801
3043.867475 98.296 147.0675
3065.924593 98.420 149.0250
3088.141547 98.534 150.9558
3110.519493 98.637 152.8642
3133.059600 98.731 154.7557
3155.763041 98.816 156.6364
3178.631001 98.893 158.5120
3201.664672 98.965 160.3855
3224.865254 99.032 162.2569
3248.233957 99.095 164.1232
3271.771999 99.156 165.9795
3295.480608 99.216 167.8196
3319.361019 99.273 169.6374
3343.414477 99.330 171.4266
3367.642236 99.384 173.1812
3392.045560 99.437 174.8946
3416.625721 99.487 176.5599
3441.383999 99.535 178.1702
3466.321686 99.578 179.7188
3491.440082 99.615 -178.7986
3516.740496 99.645 -177.3832
3542.224247 99.664 -176.0295
3567.892664 99.671 -174.7238
3593.747085 99.661 -173.4407
3619.788858 99.633 -172.1411
3646.019340 99.586 -170.7712
3672.439900 99.518 -169.2632
3699.051913 99.432 -167.5379
3725.856768 99.333 -165.5132
3752.855862 99.231 -163.1173
3780.050603 99.135 -160.3075
3807.442408 99.058 -157.0886
3835.032705 99.011 -153.5228
3862.822933 99.002 -149.7217
3890.814540 99.033 -145.8201
3919.008986 99.103 -141.9424
3947.407741 99.205 -138.1786
3976.012284 99.334 -134.5754
4004.824108 99.483 -131.1452
4033.844715 99.647 -127.8810
4063.075616 99.822 -124.7710
4092.518337 100.005 -121.8063
4122.174412 100.191 -118.9812
4152.045387 100.379 -116.2892
4182.132820 100.564 -113.7195
4212.438278 100.744 -111.2561
4242.963342 100.918 -108.8798
4273.709604 101.083 -106.5714
4304.678665 101.240 -104.3154
4335.872141 101.389 -102.1021
4367.291658 101.528 -99.9260
4398.938854 101.658 -97.7839
4430.815378 101.776 -95.6720
4462.922893 101.882 -93.5846
4495.263072 101.975 -91.5138
4527.837601 102.054 -89.4492
4560.648179 102.117 -87.3790
4593.696515 102.166 -85.2898
4626.984334 102.200 -83.1669
4660.513370 102.219 -80.9943
4694.285371 102.226 -78.7561
4728.302098 102.221 -76.4385
4762.565324 102.209 -74.0335
4797.076835 102.191 -71.5407
4831.838432 102.172 -68.9683
4866.851925 102.154 -66.3312
4902.119140 102.138 -63.6468
4937.641916 102.126 -60.9297
4973.422105 102.118 -58.1890
5009.461572 102.115 -55.4268
5045.762195 102.116 -52.6398
5082.325868 102.122 -49.8228
5119.154496 102.134 -46.9709
5156.250000 102.153 -44.0820
5193.614313 102.179 -41.1567
5231.249383 102.213 -38.1975
5269.157173 102.255 -35.2072
5307.339658 102.306 -32.1885
5345.798829 102.366 -29.1451
5384.536691 102.436 -26.0819
5423.555263 102.516 -23.0069
5462.856580 102.607 -19.9298
5502.442691 102.710 -16.8614
5542.315659 102.824 -13.8116
5582.477563 102.951 -10.7896
5622.930497 103.092 -7.8054
5663.676569 103.248 -4.8727
5704.717904 103.420 -2.0112
5746.056642 103.609 0.7517
5787.694937 103.814 3.3828
5829.634960 104.033 5.8473
5871.878898 104.264 8.1140
5914.428953 104.502 10.1592
5957.287343 104.741 11.9691
6000.456303 104.977 13.5393
6043.938083 105.204 14.8729
6087.734950 105.417 15.9783
6131.849187 105.611 16.8677
6176.283094 105.780 17.5569
6221.038987 105.920 18.0646
6266.119200 106.028 18.4111
6311.526083 106.100 18.6173
6357.262002 106.133 18.7039
6403.329344 106.124 18.6913
6449.730508 106.071 18.6006
6496.467914 105.971 18.4554
6543.543998 105.822 18.2827
6590.961215 105.621 18.1130
6638.722037 105.369 17.9817
6686.828954 105.063 17.9288
6735.284473 104.703 18.0002
6784.091120 104.289 18.2473
6833.251441 103.823 18.7256
6882.767998 103.309 19.4926
6932.643372 102.748 20.6050
6982.880164 102.147 22.1197
7033.480992 101.511 24.0989
7084.448495 100.847 26.6167
7135.785329 100.162 29.7676
7187.494171 99.466 33.6747
7239.577717 98.770 38.4959
7292.038681 98.089 44.4265
7344.879799 97.440 51.6850
7398.103826 96.843 60.4598
7451.713536 96.319 70.7870
7505.711724 95.886 82.3745
7560.101205 95.559 94.5123
7614.884815 95.342 106.2573
7670.065409 95.230 116.8222
7725.645865 95.206 125.8228
7781.629080 95.251 133.2382
7838.017972 95.340 139.2413
7894.815481 95.450 144.0593
7952.024569 95.560 147.9042
8009.648217 95.651 150.9520
8067.689429 95.708 153.3467
8126.151233 95.719 155.2134
8185.036674 95.675 156.6705
8244.348824 95.568 157.8382
8304.090774 95.395 158.8478
8364.265639 95.161 159.8533
8424.876556 94.871 161.0541
8485.926684 94.543 162.7397
8547.419207 94.203 165.3977
8609.357330 93.887 170.0048
8671.744282 93.640 178.9769
8734.583316 93.510 -160.4030
8797.877707 93.536 -114.8148
8861.630756 93.735 -74.3362
8925.845785 94.098 -56.7747
8990.526143 94.598 -48.2542
9055.675202 95.195 -43.1489
9121.296357 95.851 -39.5916
9187.393031 96.537 -36.8384
9253.968668 97.232 -34.5487
9321.026740 97.920 -32.5612
9388.570742 98.594 -30.8101
9456.604196 99.247 -29.2859
9525.130648 99.874 -28.0112
9594.153671 100.468 -27.0240
9663.676863 101.023 -26.3640
9733.703850 101.533 -26.0616
9804.238280 101.990 -26.1310
9875.283832 102.385 -26.5677
9946.844210 102.712 -27.3482
10018.923143 102.964 -28.4317
10091.524390 103.136 -29.7626
10164.651736 103.226 -31.2769
10238.308993 103.232 -32.9080
10312.500000 103.155 -34.5922
10387.228626 102.997 -36.2672
10462.498767 102.760 -37.8698
10538.314345 102.444 -39.3348
10614.679315 102.054 -40.5971
10691.597657 101.592 -41.5947
10769.073381 101.065 -42.2714
10847.110526 100.477 -42.5793
10925.713161 99.835 -42.4796
11004.885382 99.144 -41.9423
11084.631318 98.411 -40.9461
11164.955126 97.640 -39.4759
11245.860993 96.836 -37.5203
11327.353138 96.005 -35.0691
11409.435808 95.149 -32.1099
11492.113283 94.273 -28.6241
11575.389873 93.381 -24.5833
11659.269920 92.477 -19.9476
11743.757796 91.568 -14.6696
11828.857906 90.661 -8.7079
11914.574686 89.769 -2.0562
12000.912606 88.907 5.2099
12087.876166 88.100 12.8797
12175.469900 87.378 20.5824
12263.698373 86.776 27.8288
12352.566187 86.334 34.1245
12442.077974 86.080 39.0912
12532.238400 86.032 42.5303
12623.052165 86.181 44.4128
12714.524005 86.502 44.8331
12806.658687 86.958 43.9633
12899.461015 87.508 42.0198
12992.935827 88.116 39.2405
13087.087996 88.752 35.8643
13181.922430 89.391 32.1136
13277.444074 90.016 28.1799
13373.657907 90.611 24.2170
13470.568945 91.166 20.3414
13568.182241 91.672 16.6384
13666.502883 92.125 13.1705
13765.535996 92.520 9.9854
13865.286744 92.856 7.1225
13965.760328 93.132 4.6175
14066.961984 93.349 2.5054
14168.896989 93.512 0.8221
14271.570658 93.624 -0.3943
14374.988342 93.693 -1.1038
14479.155433 93.727 -1.2662
14584.077362 93.736 -0.8450
14689.759598 93.734 0.1858
14796.207652 93.734 1.8329
14903.427072 93.750 4.0730
15011.423448 93.796 6.8420
15120.202410 93.884 10.0286
15229.769630 94.019 13.4771
15340.130819 94.204 17.0015
15451.291730 94.434 20.4113
15563.258160 94.702 23.5389
15676.035944 94.995 26.2615
15789.630962 95.301 28.5085
15904.049137 95.607 30.2582
16019.296433 95.900 31.5261
16135.378859 96.172 32.3513
16252.302465 96.416 32.7852
16370.073348 96.627 32.8835
16488.697648 96.803 32.7022
16608.181548 96.945 32.2943
16728.531278 97.054 31.7075
16849.753112 97.136 30.9819
16971.853368 97.200 30.1461
17094.838414 97.256 29.2137
17218.714660 97.314 28.1804
17343.488565 97.389 27.0211
17469.166632 97.491 25.6902
17595.755415 97.628 24.1222
17723.261512 97.803 22.2363
17851.691571 98.013 19.9421
17981.052287 98.250 17.1487
18111.350404 98.499 13.7726
18242.592715 98.743 9.7460
18374.786062 98.964 5.0202
18507.937336 99.145 -0.4327
18642.053479 99.273 -6.6241
18777.141484 99.338 -13.5543
18913.208391 99.339 -21.2164
19050.261296 99.276 -29.5912
19188.307342 99.157 -38.6224
19327.353727 98.994 -48.1594
19467.407699 98.805 -57.8699
19608.476560 98.610 -67.1696
19750.567664 98.433 -75.2461
19893.688419 98.297 -81.2267
20037.846286 98.224 -84.4067
