* Measurement data measured by REW V5.31.3
* Source: EXCL: Headset (USB-C to 3.5mm Headphone Jack Adapter), MICROPHONE (Master Volume), 0, volume: 0.260
* Format: 256k Log Swept Sine, 1 sweep at -12.0 dBFS with no timing reference
* Dated: Feb 10, 2025 1:54:46 PM
* REW Settings:
*  C-weighting compensation: Off
*  Target level: 75.0 dB
* Note: ; 
* Measurement: Maxwell (WC FreeZe) R3
* Smoothing: 1/6 octave
* Frequency Step: 96 ppo
* Start Frequency: 20.0 Hz
*
* Freq(Hz) SPL(dB) Phase(degrees)
20.141602 98.052 28.0323
20.287556 98.093 27.5420
20.434568 98.145 26.8906
20.582645 98.203 26.1008
20.731796 98.265 25.1962
20.882027 98.324 24.1997
21.033346 98.379 23.1315
21.185763 98.427 22.0084
21.339284 98.467 20.8436
21.493917 98.498 19.6467
21.649671 98.521 18.4238
21.806553 98.536 17.1783
21.964572 98.546 15.9117
22.123737 98.552 14.6234
22.284054 98.557 13.3121
22.445534 98.561 11.9760
22.608183 98.569 10.6136
22.772012 98.580 9.2237
22.937027 98.597 7.8059
23.103238 98.622 6.3612
23.270654 98.656 4.8916
23.439282 98.699 3.3999
23.609133 98.754 1.8902
23.780215 98.820 0.3669
23.952536 98.899 -1.1652
24.126106 98.989 -2.7014
24.300934 99.091 -4.2375
24.477028 99.204 -5.7697
24.654399 99.327 -7.2955
24.833055 99.458 -8.8131
25.013005 99.594 -10.3219
25.194260 99.735 -11.8224
25.376828 99.876 -13.3159
25.560719 100.017 -14.8044
25.745942 100.155 -16.2906
25.932508 100.288 -17.7775
26.120426 100.415 -19.2681
26.309705 100.535 -20.7654
26.500356 100.646 -22.2720
26.692388 100.748 -23.7900
26.885812 100.841 -25.3206
27.080638 100.925 -26.8645
27.276876 101.000 -28.4212
27.474535 101.069 -29.9895
27.673627 101.131 -31.5674
27.874161 101.190 -33.1523
28.076149 101.246 -34.7413
28.279600 101.305 -36.3312
28.484526 101.367 -37.9189
28.690937 101.436 -39.5018
28.898843 101.516 -41.0776
29.108256 101.608 -42.6445
29.319186 101.713 -44.2014
29.531645 101.831 -45.7478
29.745644 101.963 -47.2832
29.961193 102.105 -48.8080
30.178304 102.255 -50.3222
30.396989 102.408 -51.8263
30.617258 102.560 -53.3207
30.839123 102.706 -54.8055
31.062596 102.841 -56.2811
31.287688 102.961 -57.7476
31.514412 103.061 -59.2051
31.742778 103.137 -60.6536
31.972800 103.186 -62.0929
32.204488 103.207 -63.5230
32.437855 103.198 -64.9436
32.672913 103.158 -66.3544
32.909674 103.089 -67.7551
33.148151 102.992 -69.1452
33.388356 102.869 -70.5240
33.630302 102.722 -71.8905
33.874001 102.556 -73.2435
34.119466 102.374 -74.5814
34.366710 102.181 -75.9024
34.615745 101.980 -77.2045
34.866585 101.776 -78.4857
35.119243 101.573 -79.7444
35.373731 101.375 -80.9793
35.630064 101.186 -82.1896
35.888254 101.009 -83.3755
36.148315 100.848 -84.5378
36.410261 100.703 -85.6781
36.674104 100.578 -86.7983
36.939860 100.473 -87.9007
37.207542 100.391 -88.9874
37.477163 100.332 -90.0602
37.748738 100.297 -91.1205
38.022281 100.286 -92.1689
38.297806 100.299 -93.2057
38.575327 100.335 -94.2305
38.854860 100.395 -95.2425
39.136419 100.477 -96.2411
39.420017 100.580 -97.2257
39.705671 100.702 -98.1963
39.993395 100.843 -99.1538
40.283203 101.001 -100.0999
40.575112 101.173 -101.0371
40.869136 101.359 -101.9689
41.165290 101.558 -102.8991
41.463591 101.766 -103.8319
41.764053 101.984 -104.7716
42.066693 102.208 -105.7221
42.371525 102.437 -106.6868
42.678567 102.668 -107.6687
42.987834 102.898 -108.6702
43.299341 103.125 -109.6928
43.613106 103.347 -110.7377
43.929145 103.559 -111.8053
44.247473 103.760 -112.8958
44.568109 103.947 -114.0090
44.891068 104.118 -115.1442
45.216367 104.272 -116.3007
45.544023 104.407 -117.4772
45.874054 104.522 -118.6724
46.206476 104.616 -119.8841
46.541307 104.689 -121.1098
46.878565 104.741 -122.3466
47.218266 104.772 -123.5909
47.560429 104.781 -124.8393
47.905072 104.770 -126.0883
48.252212 104.739 -127.3346
48.601867 104.690 -128.5757
48.954056 104.623 -129.8088
49.308798 104.541 -131.0318
49.666109 104.444 -132.2421
50.026010 104.334 -133.4367
50.388520 104.214 -134.6123
50.753656 104.084 -135.7652
51.121437 103.948 -136.8918
51.491884 103.807 -137.9883
51.865016 103.662 -139.0519
52.240851 103.516 -140.0804
52.619410 103.370 -141.0724
53.000712 103.224 -142.0276
53.384777 103.081 -142.9465
53.771625 102.940 -143.8300
54.161276 102.800 -144.6795
54.553751 102.663 -145.4962
54.949070 102.527 -146.2812
55.347254 102.392 -147.0352
55.748323 102.256 -147.7586
56.152298 102.120 -148.4518
56.559201 101.983 -149.1149
56.969052 101.844 -149.7486
57.381873 101.703 -150.3531
57.797686 101.560 -150.9289
58.216512 101.415 -151.4762
58.638373 101.268 -151.9953
59.063291 101.120 -152.4865
59.491288 100.971 -152.9502
59.922386 100.822 -153.3868
60.356608 100.672 -153.7966
60.793977 100.523 -154.1804
61.234515 100.375 -154.5389
61.678246 100.228 -154.8733
62.125192 100.083 -155.1851
62.575377 99.940 -155.4762
63.028824 99.801 -155.7483
63.485557 99.666 -156.0035
63.945599 99.536 -156.2437
64.408975 99.410 -156.4708
64.875709 99.290 -156.6868
65.345825 99.176 -156.8937
65.819348 99.068 -157.0932
66.296302 98.966 -157.2870
66.776713 98.869 -157.4764
67.260604 98.779 -157.6619
67.748002 98.694 -157.8437
68.238932 98.615 -158.0217
68.733420 98.541 -158.1956
69.231490 98.472 -158.3653
69.733170 98.408 -158.5311
70.238485 98.349 -158.6934
70.747463 98.294 -158.8530
71.260128 98.244 -159.0107
71.776508 98.198 -159.1676
72.296630 98.156 -159.3249
72.820521 98.117 -159.4837
73.348209 98.083 -159.6452
73.879720 98.051 -159.8107
74.415083 98.022 -159.9811
74.954326 97.996 -160.1577
75.497475 97.971 -160.3411
76.044561 97.947 -160.5320
76.595612 97.925 -160.7309
77.150655 97.902 -160.9380
77.709720 97.878 -161.1532
78.272837 97.852 -161.3764
78.840034 97.825 -161.6075
79.411342 97.794 -161.8459
79.986789 97.760 -162.0915
80.566406 97.723 -162.3439
81.150224 97.681 -162.6031
81.738272 97.636 -162.8694
82.330581 97.588 -163.1431
82.927182 97.537 -163.4244
83.528107 97.486 -163.7133
84.133386 97.434 -164.0096
84.743051 97.386 -164.3122
85.357134 97.343 -164.6202
85.975667 97.308 -164.9324
86.598682 97.285 -165.2478
87.226212 97.276 -165.5654
87.858289 97.285 -165.8843
88.494946 97.315 -166.2035
89.136217 97.367 -166.5222
89.782135 97.442 -166.8395
90.432733 97.540 -167.1545
91.088046 97.658 -167.4666
91.748108 97.793 -167.7749
92.412952 97.941 -168.0787
93.082615 98.096 -168.3770
93.757130 98.254 -168.6689
94.436533 98.408 -168.9534
95.120859 98.554 -169.2295
95.810144 98.688 -169.4964
96.504423 98.807 -169.7535
97.203734 98.909 -170.0002
97.908112 98.993 -170.2361
98.617595 99.059 -170.4607
99.332219 99.108 -170.6734
100.052021 99.141 -170.8738
100.777039 99.161 -171.0612
101.507311 99.170 -171.2354
102.242875 99.171 -171.3959
102.983769 99.164 -171.5429
103.730032 99.152 -171.6767
104.481702 99.136 -171.7977
105.238820 99.115 -171.9066
106.001424 99.090 -172.0041
106.769554 99.058 -172.0910
107.543250 99.020 -172.1683
108.322553 98.973 -172.2373
109.107503 98.915 -172.2992
109.898141 98.847 -172.3552
110.694508 98.766 -172.4064
111.496646 98.673 -172.4534
112.304596 98.569 -172.4967
113.118402 98.453 -172.5369
113.938104 98.328 -172.5745
114.763747 98.195 -172.6104
115.595372 98.057 -172.6455
116.433024 97.916 -172.6806
117.276746 97.774 -172.7168
118.126581 97.633 -172.7546
118.982575 97.494 -172.7949
119.844772 97.358 -172.8381
120.713217 97.226 -172.8847
121.587954 97.097 -172.9350
122.469031 96.970 -172.9893
123.356492 96.846 -173.0481
124.250384 96.721 -173.1119
125.150753 96.595 -173.1815
126.057647 96.467 -173.2579
126.971113 96.334 -173.3417
127.891198 96.195 -173.4336
128.817950 96.050 -173.5337
129.751418 95.897 -173.6419
130.691651 95.737 -173.7575
131.638696 95.570 -173.8796
132.592604 95.397 -174.0069
133.553425 95.220 -174.1380
134.521208 95.041 -174.2716
135.496004 94.864 -174.4061
136.477864 94.690 -174.5403
137.466839 94.525 -174.6731
138.462981 94.370 -174.8031
139.466340 94.229 -174.9291
140.476971 94.104 -175.0495
141.494925 93.995 -175.1627
142.520256 93.903 -175.2668
143.553016 93.825 -175.3596
144.593260 93.760 -175.4392
145.641043 93.703 -175.5035
146.696418 93.652 -175.5508
147.759441 93.602 -175.5791
148.830166 93.550 -175.5868
149.908651 93.493 -175.5722
150.994951 93.428 -175.5330
152.089123 93.354 -175.4670
153.191223 93.272 -175.3718
154.301310 93.182 -175.2451
155.419441 93.084 -175.0846
156.545674 92.981 -174.8884
157.680069 92.874 -174.6546
158.822683 92.766 -174.3819
159.973578 92.658 -174.0696
161.132813 92.553 -173.7173
162.300447 92.451 -173.3255
163.476543 92.353 -172.8951
164.661162 92.261 -172.4272
165.854364 92.175 -171.9230
167.056213 92.095 -171.3844
168.266772 92.023 -170.8130
169.486102 91.960 -170.2114
170.714268 91.905 -169.5821
171.951334 91.859 -168.9277
173.197364 91.824 -168.2512
174.452424 91.799 -167.5553
175.716578 91.784 -166.8427
176.989893 91.779 -166.1164
178.272434 91.783 -165.3791
179.564270 91.795 -164.6340
180.865467 91.813 -163.8841
182.176092 91.837 -163.1326
183.496216 91.865 -162.3824
184.825905 91.896 -161.6363
186.165229 91.930 -160.8967
187.514259 91.965 -160.1660
188.873065 92.002 -159.4466
190.241717 92.041 -158.7405
191.620287 92.083 -158.0496
193.008847 92.126 -157.3756
194.407468 92.173 -156.7196
195.816225 92.222 -156.0822
197.235190 92.274 -155.4638
198.664438 92.328 -154.8641
200.104042 92.384 -154.2826
201.554078 92.440 -153.7187
203.014622 92.496 -153.1717
204.485750 92.552 -152.6409
205.967538 92.605 -152.1258
207.460064 92.657 -151.6262
208.963405 92.705 -151.1415
210.477640 92.752 -150.6714
212.002848 92.795 -150.2151
213.539108 92.837 -149.7714
215.086500 92.876 -149.3392
216.645105 92.913 -148.9172
218.215005 92.949 -148.5043
219.796281 92.984 -148.0998
221.389015 93.017 -147.7028
222.993292 93.047 -147.3130
224.609193 93.075 -146.9299
226.236804 93.099 -146.5532
227.876209 93.119 -146.1825
229.527494 93.135 -145.8172
231.190745 93.147 -145.4568
232.866048 93.154 -145.1005
234.553491 93.157 -144.7477
236.253163 93.157 -144.3975
237.965150 93.154 -144.0497
239.689544 93.149 -143.7041
241.426433 93.144 -143.3614
243.175909 93.141 -143.0224
244.938062 93.138 -142.6881
246.712984 93.139 -142.3596
248.500768 93.143 -142.0376
250.301507 93.151 -141.7223
252.115295 93.164 -141.4137
253.942226 93.183 -141.1119
255.782396 93.207 -140.8167
257.635901 93.239 -140.5279
259.502837 93.277 -140.2460
261.383301 93.322 -139.9714
263.277392 93.376 -139.7048
265.185209 93.437 -139.4474
267.106850 93.506 -139.2006
269.042417 93.583 -138.9657
270.992009 93.667 -138.7445
272.955729 93.757 -138.5382
274.933678 93.853 -138.3483
276.925961 93.954 -138.1757
278.932681 94.060 -138.0211
280.953942 94.170 -137.8849
282.989850 94.284 -137.7669
285.040511 94.401 -137.6670
287.106032 94.523 -137.5844
289.186521 94.649 -137.5187
291.282086 94.781 -137.4693
293.392836 94.917 -137.4356
295.518881 95.060 -137.4174
297.660333 95.208 -137.4145
299.817302 95.360 -137.4267
301.989902 95.516 -137.4541
304.178245 95.675 -137.4962
306.382446 95.834 -137.5531
308.602620 95.992 -137.6245
310.838882 96.146 -137.7102
313.091348 96.296 -137.8104
315.360137 96.439 -137.9252
317.645367 96.574 -138.0548
319.947156 96.701 -138.1993
322.265625 96.818 -138.3590
324.600895 96.925 -138.5340
326.953086 97.022 -138.7244
329.322323 97.108 -138.9305
331.708729 97.182 -139.1524
334.112427 97.245 -139.3900
336.533543 97.298 -139.6435
338.972204 97.340 -139.9130
341.428536 97.372 -140.1983
343.902668 97.396 -140.4995
346.394729 97.412 -140.8166
348.904848 97.422 -141.1495
351.433156 97.429 -141.4983
353.979786 97.434 -141.8630
356.544869 97.439 -142.2435
359.128540 97.447 -142.6398
361.730934 97.462 -143.0519
364.352185 97.484 -143.4799
366.992431 97.518 -143.9234
369.651810 97.563 -144.3824
372.330459 97.623 -144.8563
375.028519 97.696 -145.3443
377.746130 97.782 -145.8451
380.483434 97.881 -146.3571
383.240574 97.990 -146.8784
386.017693 98.107 -147.4064
388.814937 98.229 -147.9383
391.632450 98.354 -148.4710
394.470380 98.479 -149.0014
397.328875 98.601 -149.5261
400.208084 98.719 -150.0421
403.108157 98.831 -150.5461
406.029245 98.937 -151.0352
408.971500 99.037 -151.5066
411.935076 99.130 -151.9581
414.920127 99.218 -152.3877
417.926810 99.302 -152.7940
420.955280 99.382 -153.1764
424.005695 99.461 -153.5349
427.078215 99.540 -153.8703
430.173000 99.620 -154.1840
433.290211 99.701 -154.4783
436.430010 99.785 -154.7561
439.592562 99.869 -155.0205
442.778031 99.955 -155.2753
445.986583 100.040 -155.5246
449.218386 100.122 -155.7723
452.473607 100.201 -156.0223
455.752418 100.274 -156.2782
459.054987 100.340 -156.5429
462.381489 100.397 -156.8192
465.732096 100.444 -157.1088
469.106983 100.481 -157.4130
472.506325 100.507 -157.7323
475.930301 100.523 -158.0670
479.379088 100.528 -158.4165
482.852867 100.524 -158.7801
486.351817 100.512 -159.1566
489.876123 100.491 -159.5446
493.425968 100.464 -159.9426
497.001536 100.430 -160.3493
500.603014 100.390 -160.7630
504.230589 100.345 -161.1823
507.884452 100.294 -161.6060
511.564792 100.237 -162.0327
515.271802 100.174 -162.4612
519.005673 100.106 -162.8904
522.766602 100.034 -163.3190
526.554785 99.958 -163.7458
530.370418 99.881 -164.1694
534.213700 99.803 -164.5884
538.084833 99.727 -165.0017
541.984018 99.654 -165.4079
545.911457 99.587 -165.8055
549.867357 99.525 -166.1933
553.851922 99.469 -166.5699
557.865362 99.419 -166.9337
561.907884 99.374 -167.2833
565.979700 99.333 -167.6174
570.081022 99.293 -167.9346
574.212064 99.254 -168.2336
578.373042 99.213 -168.5133
582.564171 99.168 -168.7727
586.785671 99.118 -169.0110
591.037762 99.063 -169.2278
595.320665 99.000 -169.4227
599.634604 98.931 -169.5960
603.979804 98.854 -169.7481
608.356491 98.771 -169.8797
612.764893 98.681 -169.9919
617.205240 98.586 -170.0860
621.677763 98.486 -170.1639
626.182696 98.384 -170.2275
630.720274 98.281 -170.2791
635.290733 98.179 -170.3213
639.894312 98.080 -170.3569
644.531250 97.986 -170.3887
649.201789 97.898 -170.4198
653.906173 97.819 -170.4529
658.644647 97.747 -170.4908
663.417457 97.684 -170.5362
668.224854 97.628 -170.5912
673.067086 97.579 -170.6577
677.944408 97.534 -170.7375
682.857073 97.491 -170.8317
687.805336 97.448 -170.9412
692.789457 97.404 -171.0662
697.809695 97.355 -171.2066
702.866312 97.300 -171.3615
707.959571 97.238 -171.5294
713.089738 97.166 -171.7077
718.257080 97.084 -171.8926
723.461867 96.991 -172.0791
728.704370 96.886 -172.2606
733.984862 96.769 -172.4287
739.303619 96.639 -172.5733
744.660918 96.497 -172.6825
750.057038 96.343 -172.7428
755.492260 96.179 -172.7395
760.966869 96.004 -172.6570
766.481148 95.820 -172.4798
772.035387 95.628 -172.1934
777.629873 95.431 -171.7850
783.264900 95.229 -171.2453
788.940760 95.026 -170.5689
794.657750 94.823 -169.7559
800.416168 94.623 -168.8118
806.216313 94.428 -167.7480
812.058489 94.241 -166.5811
817.943000 94.063 -165.3313
823.870152 93.895 -164.0218
829.840255 93.740 -162.6762
835.853619 93.597 -161.3178
841.910559 93.469 -159.9678
848.011390 93.355 -158.6445
854.156430 93.256 -157.3631
860.346000 93.171 -156.1355
866.580422 93.100 -154.9700
872.860020 93.043 -153.8724
879.185124 92.999 -152.8456
885.556062 92.968 -151.8905
891.973166 92.950 -151.0063
898.436771 92.943 -150.1905
904.947215 92.948 -149.4394
911.504835 92.964 -148.7483
918.109975 92.990 -148.1117
924.762978 93.027 -147.5233
931.464192 93.075 -146.9768
938.213966 93.132 -146.4657
945.012651 93.199 -145.9841
951.860602 93.275 -145.5267
958.758176 93.361 -145.0894
965.705733 93.455 -144.6697
972.703635 93.557 -144.2667
979.752246 93.668 -143.8813
986.851935 93.787 -143.5161
994.003071 93.914 -143.1747
1001.206027 94.048 -142.8621
1008.461179 94.189 -142.5832
1015.768904 94.338 -142.3432
1023.129584 94.494 -142.1469
1030.543603 94.657 -141.9982
1038.011347 94.827 -141.9001
1045.533205 95.003 -141.8547
1053.109569 95.184 -141.8630
1060.740836 95.370 -141.9250
1068.427401 95.558 -142.0398
1076.169666 95.748 -142.2057
1083.968035 95.937 -142.4203
1091.822915 96.123 -142.6804
1099.734713 96.303 -142.9823
1107.703844 96.475 -143.3215
1115.730723 96.637 -143.6930
1123.815768 96.788 -144.0912
1131.959400 96.924 -144.5096
1140.162045 97.046 -144.9411
1148.424129 97.153 -145.3780
1156.746083 97.244 -145.8120
1165.128342 97.322 -146.2347
1173.571343 97.386 -146.6379
1182.075524 97.439 -147.0139
1190.641331 97.483 -147.3562
1199.269209 97.519 -147.6591
1207.959608 97.549 -147.9182
1216.712981 97.575 -148.1288
1225.529785 97.598 -148.2858
1234.410479 97.618 -148.3830
1243.355526 97.638 -148.4134
1252.365393 97.657 -148.3705
1261.440549 97.678 -148.2496
1270.581467 97.704 -148.0505
1279.788624 97.735 -147.7782
1289.062500 97.776 -147.4442
1298.403578 97.827 -147.0659
1307.812346 97.890 -146.6656
1317.289293 97.966 -146.2677
1326.834914 98.054 -145.8968
1336.449707 98.152 -145.5751
1346.134173 98.260 -145.3212
1355.888816 98.375 -145.1489
1365.714145 98.494 -145.0677
1375.610673 98.614 -145.0827
1385.578915 98.732 -145.1960
1395.619391 98.848 -145.4065
1405.732624 98.957 -145.7116
1415.919142 99.060 -146.1064
1426.179476 99.154 -146.5851
1436.514160 99.239 -147.1408
1446.923734 99.314 -147.7655
1457.408740 99.379 -148.4508
1467.969724 99.434 -149.1877
1478.607238 99.479 -149.9666
1489.321836 99.514 -150.7780
1500.114076 99.539 -151.6120
1510.984521 99.555 -152.4597
1521.933737 99.562 -153.3129
1532.962297 99.561 -154.1650
1544.070773 99.552 -155.0114
1555.259747 99.536 -155.8497
1566.529800 99.511 -156.6794
1577.881521 99.479 -157.5016
1589.315501 99.438 -158.3178
1600.832336 99.386 -159.1282
1612.432627 99.322 -159.9301
1624.116978 99.243 -160.7162
1635.886000 99.147 -161.4738
1647.740304 99.033 -162.1840
1659.680509 98.899 -162.8225
1671.707238 98.746 -163.3605
1683.821118 98.574 -163.7668
1696.022780 98.387 -164.0098
1708.312860 98.189 -164.0608
1720.692000 97.985 -163.8971
1733.160843 97.782 -163.5059
1745.720041 97.586 -162.8872
1758.370248 97.406 -162.0562
1771.112124 97.248 -161.0439
1783.946332 97.116 -159.8953
1796.873543 97.014 -158.6649
1809.894429 96.942 -157.4107
1823.009670 96.899 -156.1869
1836.219950 96.879 -155.0380
1849.525956 96.878 -153.9950
1862.928384 96.891 -153.0741
1876.427931 96.912 -152.2778
1890.025301 96.937 -151.5979
1903.721204 96.962 -151.0191
1917.516352 96.984 -150.5232
1931.411466 97.001 -150.0914
1945.407270 97.012 -149.7070
1959.504493 97.016 -149.3557
1973.703870 97.011 -149.0244
1988.006142 96.996 -148.7000
2002.412054 96.969 -148.3689
2016.922357 96.931 -148.0170
2031.537808 96.882 -147.6313
2046.259169 96.821 -147.2012
2061.087206 96.751 -146.7208
2076.022694 96.673 -146.1901
2091.066410 96.590 -145.6159
2106.219139 96.505 -145.0110
2121.481671 96.419 -144.3923
2136.854802 96.334 -143.7781
2152.339333 96.249 -143.1841
2167.936071 96.165 -142.6206
2183.645829 96.080 -142.0902
2199.469427 95.995 -141.5880
2215.407689 95.907 -141.1026
2231.461446 95.817 -140.6189
2247.631536 95.726 -140.1209
2263.918800 95.635 -139.5943
2280.324089 95.544 -139.0280
2296.848258 95.456 -138.4141
2313.492167 95.371 -137.7474
2330.256685 95.293 -137.0258
2347.142685 95.222 -136.2504
2364.151049 95.161 -135.4265
2381.282662 95.111 -134.5641
2398.538418 95.074 -133.6783
2415.919216 95.052 -132.7878
2433.425962 95.044 -131.9138
2451.059570 95.050 -131.0774
2468.820958 95.069 -130.2973
2486.711052 95.099 -129.5885
2504.730786 95.138 -128.9601
2522.881098 95.184 -128.4160
2541.162934 95.234 -127.9540
2559.577248 95.285 -127.5666
2578.125000 95.337 -127.2412
2596.807157 95.388 -126.9607
2615.624692 95.437 -126.7034
2634.578586 95.486 -126.4447
2653.669829 95.535 -126.1586
2672.899414 95.588 -125.8203
2692.268345 95.647 -125.4086
2711.777632 95.718 -124.9097
2731.428290 95.804 -124.3199
2751.221345 95.910 -123.6480
2771.157829 96.037 -122.9157
2791.238781 96.185 -122.1541
2811.465248 96.352 -121.3997
2831.838284 96.535 -120.6875
2852.358952 96.729 -120.0464
2873.028321 96.927 -119.4955
2893.847468 97.125 -119.0440
2914.817480 97.317 -118.6917
2935.939449 97.499 -118.4312
2957.214476 97.670 -118.2506
2978.643672 97.826 -118.1356
3000.228152 97.967 -118.0720
3021.969041 98.093 -118.0467
3043.867475 98.206 -118.0495
3065.924593 98.305 -118.0723
3088.141547 98.391 -118.1088
3110.519493 98.466 -118.1537
3133.059600 98.532 -118.2013
3155.763041 98.589 -118.2459
3178.631001 98.640 -118.2828
3201.664672 98.687 -118.3097
3224.865254 98.732 -118.3285
3248.233957 98.778 -118.3458
3271.771999 98.826 -118.3725
3295.480608 98.878 -118.4222
3319.361019 98.933 -118.5088
3343.414477 98.991 -118.6443
3367.642236 99.051 -118.8380
3392.045560 99.111 -119.0959
3416.625721 99.171 -119.4213
3441.383999 99.229 -119.8156
3466.321686 99.283 -120.2788
3491.440082 99.332 -120.8101
3516.740496 99.375 -121.4070
3542.224247 99.410 -122.0651
3567.892664 99.434 -122.7757
3593.747085 99.444 -123.5244
3619.788858 99.438 -124.2886
3646.019340 99.414 -125.0361
3672.439900 99.370 -125.7251
3699.051913 99.306 -126.3054
3725.856768 99.226 -126.7223
3752.855862 99.133 -126.9237
3780.050603 99.038 -126.8704
3807.442408 98.951 -126.5479
3835.032705 98.884 -125.9754
3862.822933 98.846 -125.2067
3890.814540 98.842 -124.3203
3919.008986 98.875 -123.4007
3947.407741 98.941 -122.5205
3976.012284 99.034 -121.7284
4004.824108 99.147 -121.0482
4033.844715 99.276 -120.4846
4063.075616 99.416 -120.0329
4092.518337 99.564 -119.6873
4122.174412 99.717 -119.4448
4152.045387 99.872 -119.3043
4182.132820 100.026 -119.2643
4212.438278 100.178 -119.3202
4242.963342 100.324 -119.4635
4273.709604 100.462 -119.6827
4304.678665 100.592 -119.9653
4335.872141 100.711 -120.2997
4367.291658 100.821 -120.6762
4398.938854 100.921 -121.0875
4430.815378 101.010 -121.5277
4462.922893 101.086 -121.9911
4495.263072 101.150 -122.4718
4527.837601 101.201 -122.9630
4560.648179 101.238 -123.4572
4593.696515 101.260 -123.9453
4626.984334 101.268 -124.4172
4660.513370 101.261 -124.8615
4694.285371 101.241 -125.2657
4728.302098 101.209 -125.6170
4762.565324 101.167 -125.9041
4797.076835 101.119 -126.1186
4831.838432 101.069 -126.2574
4866.851925 101.019 -126.3227
4902.119140 100.975 -126.3220
4937.641916 100.938 -126.2656
4973.422105 100.912 -126.1648
5009.461572 100.899 -126.0301
5045.762195 100.899 -125.8700
5082.325868 100.914 -125.6918
5119.154496 100.946 -125.5029
5156.250000 100.995 -125.3119
5193.614313 101.063 -125.1297
5231.249383 101.150 -124.9692
5269.157173 101.255 -124.8439
5307.339658 101.379 -124.7679
5345.798829 101.520 -124.7543
5384.536691 101.678 -124.8158
5423.555263 101.852 -124.9650
5462.856580 102.040 -125.2141
5502.442691 102.241 -125.5746
5542.315659 102.454 -126.0563
5582.477563 102.678 -126.6661
5622.930497 102.910 -127.4082
5663.676569 103.151 -128.2849
5704.717904 103.401 -129.2985
5746.056642 103.658 -130.4530
5787.694937 103.923 -131.7550
5829.634960 104.193 -133.2136
5871.878898 104.467 -134.8389
5914.428953 104.741 -136.6398
5957.287343 105.011 -138.6222
6000.456303 105.273 -140.7876
6043.938083 105.523 -143.1334
6087.734950 105.756 -145.6535
6131.849187 105.968 -148.3392
6176.283094 106.155 -151.1801
6221.038987 106.314 -154.1637
6266.119200 106.441 -157.2763
6311.526083 106.534 -160.5032
6357.262002 106.589 -163.8294
6403.329344 106.604 -167.2386
6449.730508 106.576 -170.7135
6496.467914 106.503 -174.2334
6543.543998 106.382 -177.7742
6590.961215 106.210 178.6929
6638.722037 105.986 175.2006
6686.828954 105.709 171.7851
6735.284473 105.379 168.4857
6784.091120 104.997 165.3440
6833.251441 104.563 162.4034
6882.767998 104.080 159.7068
6932.643372 103.553 157.2941
6982.880164 102.985 155.2013
7033.480992 102.383 153.4607
7084.448495 101.752 152.1040
7135.785329 101.100 151.1664
7187.494171 100.434 150.6880
7239.577717 99.761 150.7143
7292.038681 99.095 151.2936
7344.879799 98.447 152.4714
7398.103826 97.835 154.2798
7451.713536 97.279 156.7198
7505.711724 96.800 159.7375
7560.101205 96.421 163.2001
7614.884815 96.157 166.8896
7670.065409 96.015 170.5250
7725.645865 95.989 173.8154
7781.629080 96.060 176.5195
7838.017972 96.203 178.4852
7894.815481 96.386 179.6565
7952.024569 96.581 -179.9435
8009.648217 96.762 179.7609
8067.689429 96.907 178.8751
8126.151233 97.001 177.5201
8185.036674 97.032 175.8250
8244.348824 96.992 173.9245
8304.090774 96.877 171.9597
8364.265639 96.685 170.0814
8424.876556 96.418 168.4545
8485.926684 96.084 167.2638
8547.419207 95.695 166.7169
8609.357330 95.269 167.0427
8671.744282 94.835 168.4759
8734.583316 94.430 171.2178
8797.877707 94.100 175.3574
8861.630756 93.893 -179.2406
8925.845785 93.848 -173.0216
8990.526143 93.985 -166.6882
9055.675202 94.297 -160.9770
9121.296357 94.758 -156.4130
9187.393031 95.328 -153.2154
9253.968668 95.967 -151.3590
9321.026740 96.643 -150.6906
9388.570742 97.330 -151.0234
9456.604196 98.011 -152.1885
9525.130648 98.672 -154.0540
9594.153671 99.304 -156.5249
9663.676863 99.898 -159.5353
9733.703850 100.446 -163.0383
9804.238280 100.939 -166.9973
9875.283832 101.368 -171.3778
9946.844210 101.726 -176.1413
10018.923143 102.003 178.7597
10091.524390 102.193 173.3842
10164.651736 102.291 167.8029
10238.308993 102.296 162.0934
10312.500000 102.209 156.3340
10387.228626 102.034 150.5969
10462.498767 101.775 144.9469
10538.314345 101.439 139.4425
10614.679315 101.032 134.1348
10691.597657 100.560 129.0665
10769.073381 100.031 124.2709
10847.110526 99.451 119.7708
10925.713161 98.830 115.5789
11004.885382 98.173 111.6977
11084.631318 97.489 108.1210
11164.955126 96.784 104.8340
11245.860993 96.065 101.8148
11327.353138 95.339 99.0351
11409.435808 94.610 96.4608
11492.113283 93.886 94.0535
11575.389873 93.171 91.7713
11659.269920 92.472 89.5692
11743.757796 91.795 87.3998
11828.857906 91.148 85.2117
11914.574686 90.540 82.9491
12000.912606 89.981 80.5497
12087.876166 89.486 77.9437
12175.469900 89.065 75.0530
12263.698373 88.732 71.7916
12352.566187 88.495 68.0668
12442.077974 88.359 63.7811
12532.238400 88.322 58.8335
12623.052165 88.376 53.1205
12714.524005 88.510 46.5349
12806.658687 88.710 38.9662
12899.461015 88.959 30.3022
12992.935827 89.243 20.4402
13087.087996 89.549 9.3083
13181.922430 89.864 -3.0942
13277.444074 90.177 -16.6481
13373.657907 90.481 -31.0787
13470.568945 90.767 -45.9716
13568.182241 91.029 -60.8578
13666.502883 91.263 -75.3303
13765.535996 91.463 -89.1211
13865.286744 91.625 -102.1097
13965.760328 91.748 -114.2826
14066.961984 91.831 -125.6840
14168.896989 91.873 -136.3795
14271.570658 91.880 -146.4355
14374.988342 91.857 -155.9127
14479.155433 91.813 -164.8644
14584.077362 91.764 -173.3408
14689.759598 91.724 178.6080
14796.207652 91.712 170.9284
14903.427072 91.745 163.5609
15011.423448 91.841 156.4380
15120.202410 92.010 149.4854
15229.769630 92.255 142.6203
15340.130819 92.571 135.7553
15451.291730 92.947 128.8014
15563.258160 93.363 121.6727
15676.035944 93.797 114.2925
15789.630962 94.228 106.6002
15904.049137 94.636 98.5550
16019.296433 95.003 90.1393
16135.378859 95.318 81.3595
16252.302465 95.573 72.2415
16370.073348 95.764 62.8252
16488.697648 95.894 53.1562
16608.181548 95.969 43.2792
16728.531278 95.999 33.2340
16849.753112 95.998 23.0520
16971.853368 95.984 12.7563
17094.838414 95.979 2.3611
17218.714660 96.007 -8.1287
17343.488565 96.093 -18.7172
17469.166632 96.261 -29.4190
17595.755415 96.527 -40.2591
17723.261512 96.895 -51.2739
17851.691571 97.355 -62.5101
17981.052287 97.887 -74.0223
18111.350404 98.463 -85.8658
18242.592715 99.053 -98.0928
18374.786062 99.630 -110.7495
18507.937336 100.171 -123.8875
18642.053479 100.658 -137.6011
18777.141484 101.080 -152.1252
18913.208391 101.431 -168.0914
19050.261296 101.709 172.6969
19188.307342 101.918 144.6543
19327.353727 102.062 95.6959
19467.407699 102.151 45.1704
19608.476560 102.198 18.7493
19750.567664 102.216 4.9110
19893.688419 102.218 -2.7544
20037.846286 102.216 -6.2766
