* Measurement data measured by REW V5.31.3
* Source: EXCL: Headset (USB-C to 3.5mm Headphone Jack Adapter), MICROPHONE (Master Volume), 0, volume: 0.260
* Format: 256k Log Swept Sine, 1 sweep at -12.0 dBFS with no timing reference
* Dated: Feb 10, 2025 1:59:27 PM
* REW Settings:
*  C-weighting compensation: Off
*  Target level: 75.0 dB
* Note: ; 
* Measurement: Maxwell (WC FreeZe) L9
* Smoothing: 1/6 octave
* Frequency Step: 96 ppo
* Start Frequency: 20.0 Hz
*
* Freq(Hz) SPL(dB) Phase(degrees)
20.141602 99.489 21.5953
20.287556 99.528 21.1296
20.434568 99.578 20.5089
20.582645 99.635 19.7525
20.731796 99.695 18.8813
20.882027 99.755 17.9158
21.033346 99.810 16.8754
21.185763 99.859 15.7769
21.339284 99.902 14.6350
21.493917 99.937 13.4614
21.649671 99.965 12.2655
21.806553 99.988 11.0540
21.964572 100.007 9.8320
22.123737 100.023 8.6023
22.284054 100.038 7.3664
22.445534 100.054 6.1245
22.608183 100.073 4.8760
22.772012 100.096 3.6196
22.937027 100.124 2.3536
23.103238 100.158 1.0762
23.270654 100.199 -0.2142
23.439282 100.248 -1.5194
23.609133 100.305 -2.8405
23.780215 100.371 -4.1788
23.952536 100.447 -5.5352
24.126106 100.531 -6.9102
24.300934 100.624 -8.3043
24.477028 100.726 -9.7177
24.654399 100.835 -11.1503
24.833055 100.951 -12.6018
25.013005 101.071 -14.0713
25.194260 101.196 -15.5577
25.376828 101.322 -17.0591
25.560719 101.447 -18.5735
25.745942 101.571 -20.0979
25.932508 101.692 -21.6291
26.120426 101.808 -23.1635
26.309705 101.918 -24.6973
26.500356 102.021 -26.2269
26.692388 102.117 -27.7490
26.885812 102.206 -29.2606
27.080638 102.287 -30.7598
27.276876 102.360 -32.2452
27.474535 102.428 -33.7165
27.673627 102.490 -35.1744
27.874161 102.549 -36.6201
28.076149 102.606 -38.0557
28.279600 102.665 -39.4840
28.484526 102.727 -40.9078
28.690937 102.796 -42.3303
28.898843 102.875 -43.7546
29.108256 102.966 -45.1836
29.319186 103.071 -46.6198
29.531645 103.191 -48.0652
29.745644 103.324 -49.5209
29.961193 103.469 -50.9872
30.178304 103.623 -52.4634
30.396989 103.781 -53.9477
30.617258 103.940 -55.4374
30.839123 104.094 -56.9287
31.062596 104.237 -58.4175
31.287688 104.364 -59.8992
31.514412 104.470 -61.3693
31.742778 104.553 -62.8238
31.972800 104.607 -64.2593
32.204488 104.632 -65.6736
32.437855 104.626 -67.0654
32.672913 104.588 -68.4341
32.909674 104.519 -69.7804
33.148151 104.420 -71.1049
33.388356 104.294 -72.4088
33.630302 104.144 -73.6928
33.874001 103.972 -74.9574
34.119466 103.784 -76.2029
34.366710 103.583 -77.4289
34.615745 103.375 -78.6350
34.866585 103.163 -79.8205
35.119243 102.952 -80.9848
35.373731 102.746 -82.1276
35.630064 102.550 -83.2483
35.888254 102.366 -84.3467
36.148315 102.197 -85.4227
36.410261 102.047 -86.4759
36.674104 101.917 -87.5063
36.939860 101.808 -88.5136
37.207542 101.722 -89.4980
37.477163 101.660 -90.4596
37.748738 101.622 -91.3991
38.022281 101.608 -92.3172
38.297806 101.619 -93.2152
38.575327 101.654 -94.0945
38.854860 101.713 -94.9566
39.136419 101.794 -95.8032
39.420017 101.897 -96.6364
39.705671 102.020 -97.4583
39.993395 102.163 -98.2714
40.283203 102.325 -99.0787
40.575112 102.503 -99.8833
40.869136 102.697 -100.6886
41.165290 102.904 -101.4983
41.463591 103.124 -102.3162
41.764053 103.354 -103.1461
42.066693 103.592 -103.9920
42.371525 103.834 -104.8574
42.678567 104.080 -105.7456
42.987834 104.326 -106.6597
43.299341 104.569 -107.6017
43.613106 104.805 -108.5735
43.929145 105.034 -109.5763
44.247473 105.251 -110.6109
44.568109 105.454 -111.6780
44.891068 105.640 -112.7778
45.216367 105.809 -113.9102
45.544023 105.957 -115.0743
45.874054 106.082 -116.2678
46.206476 106.185 -117.4871
46.541307 106.263 -118.7271
46.878565 106.317 -119.9813
47.218266 106.346 -121.2424
47.560429 106.352 -122.5027
47.905072 106.334 -123.7550
48.252212 106.295 -124.9929
48.601867 106.237 -126.2113
48.954056 106.161 -127.4067
49.308798 106.070 -128.5767
49.666109 105.965 -129.7199
50.026010 105.850 -130.8358
50.388520 105.726 -131.9242
50.753656 105.595 -132.9847
51.121437 105.460 -134.0172
51.491884 105.321 -135.0213
51.865016 105.182 -135.9964
52.240851 105.042 -136.9421
52.619410 104.904 -137.8579
53.000712 104.767 -138.7433
53.384777 104.633 -139.5982
53.771625 104.500 -140.4227
54.161276 104.369 -141.2168
54.553751 104.240 -141.9813
54.949070 104.110 -142.7166
55.347254 103.981 -143.4233
55.748323 103.851 -144.1021
56.152298 103.718 -144.7532
56.559201 103.583 -145.3763
56.969052 103.446 -145.9711
57.381873 103.305 -146.5367
57.797686 103.161 -147.0723
58.216512 103.014 -147.5768
58.638373 102.865 -148.0495
59.063291 102.714 -148.4899
59.491288 102.562 -148.8980
59.922386 102.409 -149.2744
60.356608 102.257 -149.6206
60.793977 102.107 -149.9383
61.234515 101.958 -150.2296
61.678246 101.812 -150.4967
62.125192 101.670 -150.7413
62.575377 101.531 -150.9652
63.028824 101.396 -151.1700
63.485557 101.266 -151.3573
63.945599 101.141 -151.5289
64.408975 101.022 -151.6871
64.875709 100.908 -151.8340
65.345825 100.800 -151.9718
65.819348 100.698 -152.1030
66.296302 100.602 -152.2293
66.776713 100.513 -152.3526
67.260604 100.429 -152.4743
67.748002 100.351 -152.5953
68.238932 100.280 -152.7163
68.733420 100.213 -152.8374
69.231490 100.152 -152.9588
69.733170 100.095 -153.0802
70.238485 100.043 -153.2019
70.747463 99.994 -153.3238
71.260128 99.950 -153.4464
71.776508 99.909 -153.5701
72.296630 99.872 -153.6958
72.820521 99.838 -153.8241
73.348209 99.806 -153.9559
73.879720 99.778 -154.0922
74.415083 99.751 -154.2335
74.954326 99.726 -154.3804
75.497475 99.703 -154.5332
76.044561 99.680 -154.6918
76.595612 99.658 -154.8560
77.150655 99.635 -155.0255
77.709720 99.611 -155.1995
78.272837 99.585 -155.3777
78.840034 99.557 -155.5597
79.411342 99.525 -155.7450
79.986789 99.491 -155.9335
80.566406 99.453 -156.1252
81.150224 99.411 -156.3202
81.738272 99.366 -156.5189
82.330581 99.319 -156.7216
82.927182 99.270 -156.9287
83.528107 99.220 -157.1403
84.133386 99.171 -157.3561
84.743051 99.126 -157.5759
85.357134 99.086 -157.7991
85.975667 99.055 -158.0251
86.598682 99.035 -158.2535
87.226212 99.030 -158.4835
87.858289 99.043 -158.7145
88.494946 99.076 -158.9458
89.136217 99.132 -159.1768
89.782135 99.211 -159.4070
90.432733 99.312 -159.6358
91.088046 99.434 -159.8622
91.748108 99.573 -160.0853
92.412952 99.725 -160.3034
93.082615 99.885 -160.5151
93.757130 100.047 -160.7185
94.436533 100.206 -160.9124
95.120859 100.358 -161.0958
95.810144 100.498 -161.2681
96.504423 100.623 -161.4294
97.203734 100.732 -161.5801
97.908112 100.824 -161.7209
98.617595 100.898 -161.8521
99.332219 100.956 -161.9743
100.052021 100.998 -162.0877
100.777039 101.028 -162.1925
101.507311 101.046 -162.2885
102.242875 101.056 -162.3758
102.983769 101.059 -162.4542
103.730032 101.056 -162.5234
104.481702 101.048 -162.5829
105.238820 101.036 -162.6322
106.001424 101.018 -162.6709
106.769554 100.994 -162.6990
107.543250 100.963 -162.7168
108.322553 100.923 -162.7253
109.107503 100.873 -162.7258
109.898141 100.811 -162.7202
110.694508 100.738 -162.7103
111.496646 100.653 -162.6981
112.304596 100.556 -162.6850
113.118402 100.448 -162.6727
113.938104 100.330 -162.6624
114.763747 100.206 -162.6547
115.595372 100.075 -162.6498
116.433024 99.942 -162.6473
117.276746 99.808 -162.6466
118.126581 99.674 -162.6469
118.982575 99.543 -162.6472
119.844772 99.416 -162.6468
120.713217 99.292 -162.6451
121.587954 99.173 -162.6424
122.469031 99.057 -162.6391
123.356492 98.943 -162.6357
124.250384 98.831 -162.6328
125.150753 98.718 -162.6314
126.057647 98.603 -162.6328
126.971113 98.485 -162.6385
127.891198 98.361 -162.6494
128.817950 98.230 -162.6662
129.751418 98.092 -162.6895
130.691651 97.946 -162.7206
131.638696 97.792 -162.7605
132.592604 97.632 -162.8099
133.553425 97.468 -162.8686
134.521208 97.301 -162.9359
135.496004 97.135 -163.0106
136.477864 96.973 -163.0918
137.466839 96.819 -163.1779
138.462981 96.676 -163.2667
139.466340 96.547 -163.3555
140.476971 96.434 -163.4414
141.494925 96.338 -163.5219
142.520256 96.258 -163.5947
143.553016 96.193 -163.6575
144.593260 96.141 -163.7084
145.641043 96.097 -163.7453
146.696418 96.058 -163.7663
147.759441 96.021 -163.7693
148.830166 95.981 -163.7526
149.908651 95.935 -163.7144
150.994951 95.883 -163.6532
152.089123 95.822 -163.5676
153.191223 95.752 -163.4563
154.301310 95.675 -163.3177
155.419441 95.591 -163.1501
156.545674 95.502 -162.9515
157.680069 95.410 -162.7197
158.822683 95.316 -162.4522
159.973578 95.223 -162.1469
161.132813 95.133 -161.8019
162.300447 95.046 -161.4168
163.476543 94.963 -160.9922
164.661162 94.886 -160.5307
165.854364 94.816 -160.0355
167.056213 94.752 -159.5103
168.266772 94.696 -158.9585
169.486102 94.647 -158.3825
170.714268 94.607 -157.7843
171.951334 94.575 -157.1651
173.197364 94.553 -156.5263
174.452424 94.540 -155.8697
175.716578 94.537 -155.1982
176.989893 94.543 -154.5152
178.272434 94.558 -153.8252
179.564270 94.581 -153.1326
180.865467 94.611 -152.4422
182.176092 94.645 -151.7580
183.496216 94.684 -151.0834
184.825905 94.724 -150.4212
186.165229 94.767 -149.7736
187.514259 94.810 -149.1427
188.873065 94.855 -148.5304
190.241717 94.900 -147.9386
191.620287 94.946 -147.3688
193.008847 94.992 -146.8222
194.407468 95.040 -146.2993
195.816225 95.088 -145.8002
197.235190 95.137 -145.3239
198.664438 95.186 -144.8690
200.104042 95.235 -144.4334
201.554078 95.282 -144.0144
203.014622 95.328 -143.6096
204.485750 95.372 -143.2168
205.967538 95.413 -142.8343
207.460064 95.450 -142.4610
208.963405 95.485 -142.0961
210.477640 95.515 -141.7390
212.002848 95.543 -141.3890
213.539108 95.567 -141.0455
215.086500 95.587 -140.7076
216.645105 95.605 -140.3750
218.215005 95.620 -140.0469
219.796281 95.633 -139.7228
221.389015 95.642 -139.4016
222.993292 95.649 -139.0822
224.609193 95.651 -138.7630
226.236804 95.650 -138.4425
227.876209 95.644 -138.1190
229.527494 95.634 -137.7910
231.190745 95.618 -137.4576
232.866048 95.598 -137.1184
234.553491 95.573 -136.7738
236.253163 95.544 -136.4245
237.965150 95.512 -136.0710
239.689544 95.478 -135.7137
241.426433 95.443 -135.3529
243.175909 95.409 -134.9890
244.938062 95.377 -134.6222
246.712984 95.348 -134.2532
248.500768 95.322 -133.8825
250.301507 95.300 -133.5111
252.115295 95.284 -133.1398
253.942226 95.274 -132.7696
255.782396 95.271 -132.4016
257.635901 95.275 -132.0371
259.502837 95.286 -131.6775
261.383301 95.307 -131.3245
263.277392 95.335 -130.9802
265.185209 95.373 -130.6471
267.106850 95.419 -130.3277
269.042417 95.473 -130.0250
270.992009 95.534 -129.7418
272.955729 95.603 -129.4811
274.933678 95.677 -129.2457
276.925961 95.755 -129.0381
278.932681 95.838 -128.8602
280.953942 95.923 -128.7135
282.989850 96.010 -128.5986
285.040511 96.099 -128.5152
287.106032 96.190 -128.4626
289.186521 96.281 -128.4390
291.282086 96.374 -128.4422
293.392836 96.468 -128.4692
295.518881 96.564 -128.5165
297.660333 96.660 -128.5799
299.817302 96.756 -128.6544
301.989902 96.852 -128.7349
304.178245 96.946 -128.8157
306.382446 97.036 -128.8913
308.602620 97.122 -128.9566
310.838882 97.201 -129.0070
313.091348 97.273 -129.0383
315.360137 97.336 -129.0473
317.645367 97.390 -129.0312
319.947156 97.435 -128.9880
322.265625 97.469 -128.9161
324.600895 97.494 -128.8149
326.953086 97.508 -128.6841
329.322323 97.513 -128.5239
331.708729 97.507 -128.3352
334.112427 97.493 -128.1192
336.533543 97.470 -127.8778
338.972204 97.439 -127.6131
341.428536 97.402 -127.3281
343.902668 97.359 -127.0258
346.394729 97.312 -126.7097
348.904848 97.264 -126.3834
351.433156 97.216 -126.0509
353.979786 97.171 -125.7158
356.544869 97.131 -125.3820
359.128540 97.099 -125.0531
361.730934 97.079 -124.7323
364.352185 97.072 -124.4225
366.992431 97.081 -124.1260
369.651810 97.108 -123.8447
372.330459 97.154 -123.5801
375.028519 97.220 -123.3332
377.746130 97.305 -123.1048
380.483434 97.408 -122.8953
383.240574 97.526 -122.7047
386.017693 97.657 -122.5327
388.814937 97.798 -122.3787
391.632450 97.945 -122.2420
394.470380 98.096 -122.1215
397.328875 98.249 -122.0163
400.208084 98.400 -121.9252
403.108157 98.548 -121.8471
406.029245 98.693 -121.7813
408.971500 98.833 -121.7268
411.935076 98.968 -121.6829
414.920127 99.099 -121.6491
417.926810 99.226 -121.6247
420.955280 99.349 -121.6093
424.005695 99.471 -121.6024
427.078215 99.590 -121.6034
430.173000 99.708 -121.6120
433.290211 99.825 -121.6278
436.430010 99.941 -121.6504
439.592562 100.055 -121.6796
442.778031 100.165 -121.7152
445.986583 100.271 -121.7571
449.218386 100.371 -121.8053
452.473607 100.464 -121.8598
455.752418 100.547 -121.9208
459.054987 100.620 -121.9883
462.381489 100.682 -122.0626
465.732096 100.731 -122.1436
469.106983 100.768 -122.2311
472.506325 100.792 -122.3250
475.930301 100.805 -122.4251
479.379088 100.806 -122.5306
482.852867 100.796 -122.6411
486.351817 100.777 -122.7554
489.876123 100.749 -122.8722
493.425968 100.712 -122.9900
497.001536 100.668 -123.1065
500.603014 100.617 -123.2195
504.230589 100.559 -123.3260
507.884452 100.493 -123.4229
511.564792 100.420 -123.5067
515.271802 100.341 -123.5736
519.005673 100.255 -123.6199
522.766602 100.164 -123.6419
526.554785 100.069 -123.6362
530.370418 99.973 -123.6001
534.213700 99.877 -123.5315
538.084833 99.785 -123.4295
541.984018 99.698 -123.2942
545.911457 99.620 -123.1271
549.867357 99.552 -122.9305
553.851922 99.495 -122.7078
557.865362 99.449 -122.4631
561.907884 99.413 -122.2011
565.979700 99.386 -121.9264
570.081022 99.365 -121.6438
574.212064 99.350 -121.3577
578.373042 99.337 -121.0720
582.564171 99.325 -120.7901
586.785671 99.310 -120.5149
591.037762 99.293 -120.2489
595.320665 99.270 -119.9941
599.634604 99.241 -119.7522
603.979804 99.206 -119.5244
608.356491 99.164 -119.3118
612.764893 99.116 -119.1152
617.205240 99.060 -118.9352
621.677763 98.998 -118.7724
626.182696 98.932 -118.6269
630.720274 98.861 -118.4991
635.290733 98.788 -118.3889
639.894312 98.713 -118.2959
644.531250 98.638 -118.2196
649.201789 98.564 -118.1587
653.906173 98.491 -118.1115
658.644647 98.419 -118.0756
663.417457 98.348 -118.0479
668.224854 98.277 -118.0244
673.067086 98.205 -118.0003
677.944408 98.129 -117.9699
682.857073 98.048 -117.9262
687.805336 97.959 -117.8615
692.789457 97.862 -117.7671
697.809695 97.754 -117.6336
702.866312 97.635 -117.4511
707.959571 97.504 -117.2092
713.089738 97.361 -116.8980
718.257080 97.207 -116.5078
723.461867 97.042 -116.0302
728.704370 96.869 -115.4582
733.984862 96.688 -114.7862
739.303619 96.501 -114.0104
744.660918 96.312 -113.1286
750.057038 96.122 -112.1397
755.492260 95.934 -111.0440
760.966869 95.749 -109.8427
766.481148 95.569 -108.5380
772.035387 95.396 -107.1335
777.629873 95.231 -105.6343
783.264900 95.074 -104.0475
788.940760 94.928 -102.3828
794.657750 94.791 -100.6528
800.416168 94.664 -98.8728
806.216313 94.548 -97.0602
812.058489 94.442 -95.2338
817.943000 94.346 -93.4119
823.870152 94.259 -91.6122
829.840255 94.181 -89.8501
835.853619 94.112 -88.1383
841.910559 94.050 -86.4866
848.011390 93.996 -84.9019
854.156430 93.949 -83.3877
860.346000 93.909 -81.9450
866.580422 93.876 -80.5722
872.860020 93.849 -79.2653
879.185124 93.828 -78.0187
885.556062 93.813 -76.8257
891.973166 93.805 -75.6788
898.436771 93.805 -74.5709
904.947215 93.812 -73.4953
911.504835 93.828 -72.4471
918.109975 93.855 -71.4228
924.762978 93.892 -70.4212
931.464192 93.940 -69.4432
938.213966 94.001 -68.4913
945.012651 94.073 -67.5691
951.860602 94.155 -66.6809
958.758176 94.248 -65.8305
965.705733 94.348 -65.0209
972.703635 94.454 -64.2538
979.752246 94.565 -63.5292
986.851935 94.678 -62.8459
994.003071 94.794 -62.2008
1001.206027 94.910 -61.5895
1008.461179 95.025 -61.0067
1015.768904 95.141 -60.4465
1023.129584 95.258 -59.9023
1030.543603 95.375 -59.3679
1038.011347 95.494 -58.8371
1045.533205 95.616 -58.3051
1053.109569 95.742 -57.7684
1060.740836 95.873 -57.2257
1068.427401 96.008 -56.6785
1076.169666 96.148 -56.1315
1083.968035 96.291 -55.5915
1091.822915 96.436 -55.0661
1099.734713 96.579 -54.5621
1107.703844 96.717 -54.0834
1115.730723 96.847 -53.6302
1123.815768 96.967 -53.1980
1131.959400 97.073 -52.7778
1140.162045 97.165 -52.3567
1148.424129 97.241 -51.9190
1156.746083 97.304 -51.4477
1165.128342 97.355 -50.9266
1173.571343 97.396 -50.3421
1182.075524 97.432 -49.6853
1190.641331 97.467 -48.9528
1199.269209 97.503 -48.1474
1207.959608 97.545 -47.2776
1216.712981 97.595 -46.3562
1225.529785 97.653 -45.3987
1234.410479 97.721 -44.4213
1243.355526 97.798 -43.4398
1252.365393 97.882 -42.4678
1261.440549 97.973 -41.5161
1270.581467 98.067 -40.5926
1279.788624 98.163 -39.7018
1289.062500 98.259 -38.8454
1298.403578 98.355 -38.0231
1307.812346 98.450 -37.2325
1317.289293 98.543 -36.4705
1326.834914 98.634 -35.7341
1336.449707 98.724 -35.0211
1346.134173 98.814 -34.3316
1355.888816 98.902 -33.6693
1365.714145 98.990 -33.0415
1375.610673 99.078 -32.4592
1385.578915 99.163 -31.9345
1395.619391 99.244 -31.4787
1405.732624 99.320 -31.1007
1415.919142 99.388 -30.8055
1426.179476 99.445 -30.5945
1436.514160 99.491 -30.4652
1446.923734 99.523 -30.4117
1457.408740 99.540 -30.4255
1467.969724 99.541 -30.4949
1478.607238 99.526 -30.6062
1489.321836 99.492 -30.7429
1500.114076 99.440 -30.8861
1510.984521 99.369 -31.0137
1521.933737 99.278 -31.1004
1532.962297 99.166 -31.1176
1544.070773 99.035 -31.0332
1555.259747 98.884 -30.8127
1566.529800 98.717 -30.4208
1577.881521 98.535 -29.8235
1589.315501 98.343 -28.9922
1600.832336 98.148 -27.9075
1612.432627 97.954 -26.5628
1624.116978 97.768 -24.9671
1635.886000 97.596 -23.1443
1647.740304 97.444 -21.1320
1659.680509 97.314 -18.9774
1671.707238 97.209 -16.7331
1683.821118 97.129 -14.4515
1696.022780 97.074 -12.1797
1708.312860 97.040 -9.9557
1720.692000 97.025 -7.8064
1733.160843 97.025 -5.7468
1745.720041 97.036 -3.7816
1758.370248 97.054 -1.9065
1771.112124 97.076 -0.1105
1783.946332 97.099 1.6214
1796.873543 97.121 3.3062
1809.894429 97.140 4.9607
1823.009670 97.155 6.5998
1836.219950 97.166 8.2352
1849.525956 97.173 9.8762
1862.928384 97.176 11.5307
1876.427931 97.175 13.2064
1890.025301 97.171 14.9110
1903.721204 97.164 16.6511
1917.516352 97.157 18.4307
1931.411466 97.150 20.2506
1945.407270 97.145 22.1081
1959.504493 97.140 23.9987
1973.703870 97.138 25.9169
1988.006142 97.136 27.8576
2002.412054 97.135 29.8155
2016.922357 97.134 31.7847
2031.537808 97.132 33.7585
2046.259169 97.128 35.7298
2061.087206 97.120 37.6919
2076.022694 97.109 39.6407
2091.066410 97.093 41.5755
2106.219139 97.071 43.5001
2121.481671 97.044 45.4213
2136.854802 97.013 47.3469
2152.339333 96.979 49.2832
2167.936071 96.946 51.2327
2183.645829 96.914 53.1924
2199.469427 96.888 55.1546
2215.407689 96.868 57.1073
2231.461446 96.856 59.0360
2247.631536 96.852 60.9261
2263.918800 96.857 62.7643
2280.324089 96.868 64.5398
2296.848258 96.885 66.2452
2313.492167 96.906 67.8770
2330.256685 96.927 69.4353
2347.142685 96.946 70.9243
2364.151049 96.963 72.3511
2381.282662 96.973 73.7250
2398.538418 96.976 75.0569
2415.919216 96.971 76.3589
2433.425962 96.955 77.6454
2451.059570 96.928 78.9348
2468.820958 96.888 80.2510
2486.711052 96.836 81.6242
2504.730786 96.773 83.0901
2522.881098 96.700 84.6875
2541.162934 96.622 86.4535
2559.577248 96.545 88.4183
2578.125000 96.475 90.5992
2596.807157 96.421 92.9948
2615.624692 96.390 95.5825
2634.578586 96.388 98.3193
2653.669829 96.420 101.1480
2672.899414 96.487 104.0073
2692.268345 96.587 106.8415
2711.777632 96.719 109.6081
2731.428290 96.876 112.2808
2751.221345 97.054 114.8483
2771.157829 97.248 117.3107
2791.238781 97.454 119.6741
2811.465248 97.668 121.9451
2831.838284 97.886 124.1282
2852.358952 98.104 126.2243
2873.028321 98.319 128.2323
2893.847468 98.528 130.1514
2914.817480 98.726 131.9852
2935.939449 98.911 133.7433
2957.214476 99.079 135.4420
2978.643672 99.230 137.1037
3000.228152 99.363 138.7532
3021.969041 99.479 140.4150
3043.867475 99.580 142.1084
3065.924593 99.670 143.8442
3088.141547 99.752 145.6226
3110.519493 99.829 147.4331
3133.059600 99.903 149.2571
3155.763041 99.976 151.0720
3178.631001 100.048 152.8547
3201.664672 100.120 154.5851
3224.865254 100.190 156.2469
3248.233957 100.258 157.8279
3271.771999 100.322 159.3194
3295.480608 100.379 160.7156
3319.361019 100.427 162.0145
3343.414477 100.464 163.2188
3367.642236 100.486 164.3383
3392.045560 100.488 165.3921
3416.625721 100.469 166.4106
3441.383999 100.425 167.4361
3466.321686 100.355 168.5232
3491.440082 100.258 169.7377
3516.740496 100.136 171.1536
3542.224247 99.995 172.8471
3567.892664 99.841 174.8858
3593.747085 99.687 177.3145
3619.788858 99.543 -179.8593
3646.019340 99.423 -176.6741
3672.439900 99.334 -173.2102
3699.051913 99.285 -169.5711
3725.856768 99.276 -165.8586
3752.855862 99.307 -162.1537
3780.050603 99.374 -158.5102
3807.442408 99.475 -154.9614
3835.032705 99.604 -151.5299
3862.822933 99.758 -148.2354
3890.814540 99.933 -145.0940
3919.008986 100.123 -142.1157
3947.407741 100.324 -139.3019
3976.012284 100.531 -136.6478
4004.824108 100.741 -134.1455
4033.844715 100.950 -131.7883
4063.075616 101.155 -129.5717
4092.518337 101.353 -127.4915
4122.174412 101.541 -125.5396
4152.045387 101.715 -123.7010
4182.132820 101.873 -121.9537
4212.438278 102.014 -120.2708
4242.963342 102.137 -118.6260
4273.709604 102.242 -116.9963
4304.678665 102.331 -115.3639
4335.872141 102.402 -113.7141
4367.291658 102.457 -112.0332
4398.938854 102.496 -110.3066
4430.815378 102.518 -108.5188
4462.922893 102.526 -106.6549
4495.263072 102.519 -104.7028
4527.837601 102.499 -102.6544
4560.648179 102.468 -100.5056
4593.696515 102.427 -98.2556
4626.984334 102.377 -95.9050
4660.513370 102.319 -93.4555
4694.285371 102.255 -90.9088
4728.302098 102.186 -88.2654
4762.565324 102.113 -85.5249
4797.076835 102.038 -82.6858
4831.838432 101.964 -79.7453
4866.851925 101.891 -76.7007
4902.119140 101.824 -73.5491
4937.641916 101.765 -70.2892
4973.422105 101.715 -66.9225
5009.461572 101.680 -63.4547
5045.762195 101.660 -59.8972
5082.325868 101.659 -56.2672
5119.154496 101.678 -52.5865
5156.250000 101.719 -48.8782
5193.614313 101.781 -45.1638
5231.249383 101.864 -41.4619
5269.157173 101.968 -37.7898
5307.339658 102.092 -34.1641
5345.798829 102.235 -30.6031
5384.536691 102.397 -27.1256
5423.555263 102.575 -23.7504
5462.856580 102.769 -20.4944
5502.442691 102.976 -17.3740
5542.315659 103.196 -14.4055
5582.477563 103.427 -11.6064
5622.930497 103.667 -8.9951
5663.676569 103.914 -6.5880
5704.717904 104.164 -4.3972
5746.056642 104.416 -2.4288
5787.694937 104.665 -0.6837
5829.634960 104.909 0.8419
5871.878898 105.144 2.1548
5914.428953 105.367 3.2642
5957.287343 105.574 4.1816
6000.456303 105.762 4.9206
6043.938083 105.926 5.4965
6087.734950 106.064 5.9275
6131.849187 106.171 6.2346
6176.283094 106.243 6.4417
6221.038987 106.278 6.5763
6266.119200 106.272 6.6686
6311.526083 106.223 6.7522
6357.262002 106.129 6.8632
6403.329344 105.989 7.0397
6449.730508 105.805 7.3187
6496.467914 105.578 7.7334
6543.543998 105.310 8.3088
6590.961215 105.005 9.0585
6638.722037 104.667 9.9838
6686.828954 104.300 11.0765
6735.284473 103.905 12.3255
6784.091120 103.484 13.7228
6833.251441 103.039 15.2670
6882.767998 102.569 16.9637
6932.643372 102.075 18.8263
6982.880164 101.558 20.8752
7033.480992 101.019 23.1386
7084.448495 100.459 25.6543
7135.785329 99.881 28.4723
7187.494171 99.286 31.6592
7239.577717 98.680 35.3036
7292.038681 98.069 39.5223
7344.879799 97.459 44.4688
7398.103826 96.862 50.3384
7451.713536 96.292 57.3613
7505.711724 95.763 65.7586
7560.101205 95.295 75.6344
7614.884815 94.903 86.8042
7670.065409 94.599 98.6650
7725.645865 94.387 110.3085
7781.629080 94.263 120.8906
7838.017972 94.212 129.9404
7894.815481 94.215 137.3794
7952.024569 94.250 143.3667
8009.648217 94.293 148.1487
8067.689429 94.326 151.9797
8126.151233 94.332 155.0961
8185.036674 94.301 157.7173
8244.348824 94.229 160.0613
8304.090774 94.116 162.3711
8364.265639 93.972 164.9645
8424.876556 93.814 168.3320
8485.926684 93.665 173.3615
8547.419207 93.560 -178.0892
8609.357330 93.533 -161.8288
8671.744282 93.617 -131.5555
8734.583316 93.830 -96.1405
8797.877707 94.170 -74.0680
8861.630756 94.620 -62.4664
8925.845785 95.152 -55.7205
8990.526143 95.735 -51.2366
9055.675202 96.344 -47.8837
9121.296357 96.957 -45.1300
9187.393031 97.561 -42.7106
9253.968668 98.143 -40.4885
9321.026740 98.696 -38.3900
9388.570742 99.215 -36.3687
9456.604196 99.694 -34.3864
9525.130648 100.133 -32.4012
9594.153671 100.530 -30.3626
9663.676863 100.889 -28.2155
9733.703850 101.216 -25.9110
9804.238280 101.522 -23.4274
9875.283832 101.818 -20.7899
9946.844210 102.115 -18.0777
10018.923143 102.423 -15.4111
10091.524390 102.742 -12.9269
10164.651736 103.071 -10.7517
10238.308993 103.402 -8.9827
10312.500000 103.724 -7.6775
10387.228626 104.024 -6.8533
10462.498767 104.289 -6.4907
10538.314345 104.505 -6.5402
10614.679315 104.660 -6.9275
10691.597657 104.745 -7.5596
10769.073381 104.751 -8.3298
10847.110526 104.676 -9.1237
10925.713161 104.519 -9.8262
11004.885382 104.282 -10.3281
11084.631318 103.972 -10.5306
11164.955126 103.594 -10.3481
11245.860993 103.158 -9.7107
11327.353138 102.673 -8.5656
11409.435808 102.149 -6.8802
11492.113283 101.598 -4.6451
11575.389873 101.029 -1.8774
11659.269920 100.455 1.3766
11743.757796 99.887 5.0392
11828.857906 99.335 9.0011
11914.574686 98.811 13.1270
12000.912606 98.325 17.2648
12087.876166 97.886 21.2594
12175.469900 97.501 24.9659
12263.698373 97.174 28.2607
12352.566187 96.904 31.0449
12442.077974 96.690 33.2440
12532.238400 96.525 34.8041
12623.052165 96.400 35.6891
12714.524005 96.303 35.8785
12806.658687 96.220 35.3665
12899.461015 96.137 34.1612
12992.935827 96.040 32.2843
13087.087996 95.917 29.7703
13181.922430 95.756 26.6663
13277.444074 95.550 23.0315
13373.657907 95.293 18.9365
13470.568945 94.983 14.4630
13568.182241 94.619 9.7028
13666.502883 94.205 4.7579
13765.535996 93.746 -0.2625
13865.286744 93.248 -5.2435
13965.760328 92.718 -10.0698
14066.961984 92.166 -14.6307
14168.896989 91.599 -18.8270
14271.570658 91.025 -22.5750
14374.988342 90.451 -25.8099
14479.155433 89.883 -28.4862
14584.077362 89.325 -30.5754
14689.759598 88.781 -32.0639
14796.207652 88.255 -32.9493
14903.427072 87.749 -33.2374
15011.423448 87.264 -32.9406
15120.202410 86.803 -32.0770
15229.769630 86.369 -30.6722
15340.130819 85.965 -28.7595
15451.291730 85.593 -26.3799
15563.258160 85.256 -23.5761
15676.035944 84.955 -20.3817
15789.630962 84.693 -16.8041
15904.049137 84.469 -12.8101
16019.296433 84.287 -8.3225
16135.378859 84.155 -3.2411
16252.302465 84.083 2.5010
16370.073348 84.084 8.8536
16488.697648 84.170 15.5786
16608.181548 84.344 22.2661
16728.531278 84.603 28.4702
16849.753112 84.935 33.8856
16971.853368 85.327 38.4371
17094.838414 85.769 42.2521
17218.714660 86.258 45.5685
17343.488565 86.797 48.6337
17469.166632 87.389 51.6160
17595.755415 88.036 54.5333
17723.261512 88.734 57.2222
17851.691571 89.468 59.3738
17981.052287 90.220 60.6309
18111.350404 90.968 60.6984
18242.592715 91.690 59.4068
18374.786062 92.368 56.7133
18507.937336 92.986 52.6692
18642.053479 93.534 47.3834
18777.141484 94.006 41.0023
18913.208391 94.399 33.7067
19050.261296 94.713 25.7255
19188.307342 94.953 17.3537
19327.353727 95.125 8.9637
19467.407699 95.239 0.9962
19608.476560 95.306 -6.0797
19750.567664 95.341 -11.8201
19893.688419 95.355 -15.8594
20037.846286 95.359 -17.9434
