* Measurement data measured by REW V5.31.3
* Source: EXCL: Headset (USB-C to 3.5mm Headphone Jack Adapter), MICROPHONE (Master Volume), 0, volume: 0.260
* Format: 256k Log Swept Sine, 1 sweep at -12.0 dBFS with no timing reference
* Dated: Feb 10, 2025 1:55:32 PM
* REW Settings:
*  C-weighting compensation: Off
*  Target level: 75.0 dB
* Note: ; 
* Measurement: Maxwell (WC FreeZe) R6
* Smoothing: 1/6 octave
* Frequency Step: 96 ppo
* Start Frequency: 20.0 Hz
*
* Freq(Hz) SPL(dB) Phase(degrees)
20.141602 98.678 21.5838
20.287556 98.711 21.0964
20.434568 98.754 20.4514
20.582645 98.803 19.6753
20.731796 98.856 18.7955
20.882027 98.909 17.8387
21.033346 98.960 16.8282
21.185763 99.008 15.7833
21.339284 99.051 14.7190
21.493917 99.091 13.6458
21.649671 99.126 12.5704
21.806553 99.159 11.4964
21.964572 99.190 10.4245
22.123737 99.220 9.3534
22.284054 99.251 8.2802
22.445534 99.284 7.2010
22.608183 99.321 6.1111
22.772012 99.362 5.0058
22.937027 99.409 3.8802
23.103238 99.462 2.7300
23.270654 99.521 1.5515
23.439282 99.587 0.3419
23.609133 99.661 -0.9006
23.780215 99.742 -2.1768
23.952536 99.830 -3.4863
24.126106 99.925 -4.8279
24.300934 100.027 -6.1997
24.477028 100.135 -7.5995
24.654399 100.247 -9.0246
24.833055 100.364 -10.4730
25.013005 100.484 -11.9427
25.194260 100.606 -13.4323
25.376828 100.728 -14.9413
25.560719 100.849 -16.4693
25.745942 100.967 -18.0166
25.932508 101.081 -19.5834
26.120426 101.191 -21.1696
26.309705 101.295 -22.7745
26.500356 101.392 -24.3968
26.692388 101.481 -26.0338
26.885812 101.563 -27.6820
27.080638 101.638 -29.3370
27.276876 101.705 -30.9936
27.474535 101.766 -32.6464
27.673627 101.821 -34.2900
27.874161 101.874 -35.9196
28.076149 101.925 -37.5315
28.279600 101.977 -39.1231
28.484526 102.034 -40.6932
28.690937 102.097 -42.2423
28.898843 102.169 -43.7719
29.108256 102.253 -45.2848
29.319186 102.349 -46.7845
29.531645 102.458 -48.2748
29.745644 102.580 -49.7596
29.961193 102.712 -51.2423
30.178304 102.852 -52.7256
30.396989 102.997 -54.2114
30.617258 103.142 -55.7006
30.839123 103.284 -57.1928
31.062596 103.417 -58.6866
31.287688 103.536 -60.1794
31.514412 103.638 -61.6680
31.742778 103.718 -63.1481
31.972800 103.774 -64.6153
32.204488 103.802 -66.0650
32.437855 103.800 -67.4930
32.672913 103.769 -68.8955
32.909674 103.708 -70.2701
33.148151 103.618 -71.6154
33.388356 103.501 -72.9312
33.630302 103.360 -74.2187
33.874001 103.198 -75.4797
34.119466 103.019 -76.7169
34.366710 102.827 -77.9328
34.615745 102.626 -79.1295
34.866585 102.422 -80.3086
35.119243 102.217 -81.4708
35.373731 102.017 -82.6159
35.630064 101.825 -83.7432
35.888254 101.645 -84.8519
36.148315 101.479 -85.9411
36.410261 101.331 -87.0105
36.674104 101.202 -88.0602
36.939860 101.094 -89.0912
37.207542 101.008 -90.1050
37.477163 100.945 -91.1036
37.748738 100.906 -92.0890
38.022281 100.890 -93.0635
38.297806 100.897 -94.0291
38.575327 100.928 -94.9877
38.854860 100.981 -95.9409
39.136419 101.057 -96.8900
39.420017 101.154 -97.8361
39.705671 101.273 -98.7799
39.993395 101.412 -99.7222
40.283203 101.571 -100.6631
40.575112 101.748 -101.6026
40.869136 101.941 -102.5404
41.165290 102.148 -103.4759
41.463591 102.367 -104.4085
41.764053 102.596 -105.3378
42.066693 102.832 -106.2638
42.371525 103.073 -107.1878
42.678567 103.314 -108.1123
42.987834 103.554 -109.0414
43.299341 103.789 -109.9808
43.613106 104.016 -110.9374
43.929145 104.233 -111.9185
44.247473 104.438 -112.9309
44.568109 104.628 -113.9799
44.891068 104.801 -115.0682
45.216367 104.955 -116.1955
45.544023 105.090 -117.3586
45.874054 105.205 -118.5518
46.206476 105.300 -119.7677
46.541307 105.373 -120.9988
46.878565 105.427 -122.2383
47.218266 105.460 -123.4808
47.560429 105.473 -124.7223
47.905072 105.467 -125.9605
48.252212 105.443 -127.1936
48.601867 105.400 -128.4203
48.954056 105.340 -129.6391
49.308798 105.264 -130.8478
49.666109 105.174 -132.0438
50.026010 105.072 -133.2240
50.388520 104.958 -134.3849
50.753656 104.835 -135.5228
51.121437 104.705 -136.6343
51.491884 104.570 -137.7165
51.865016 104.431 -138.7670
52.240851 104.290 -139.7841
52.619410 104.147 -140.7666
53.000712 104.005 -141.7140
53.384777 103.865 -142.6259
53.771625 103.725 -143.5026
54.161276 103.588 -144.3446
54.553751 103.452 -145.1526
54.949070 103.317 -145.9273
55.347254 103.183 -146.6692
55.748323 103.048 -147.3784
56.152298 102.913 -148.0550
56.559201 102.777 -148.6990
56.969052 102.638 -149.3109
57.381873 102.499 -149.8915
57.797686 102.358 -150.4423
58.216512 102.215 -150.9653
58.638373 102.072 -151.4625
59.063291 101.929 -151.9362
59.491288 101.785 -152.3883
59.922386 101.642 -152.8201
60.356608 101.499 -153.2323
60.793977 101.357 -153.6250
61.234515 101.216 -153.9980
61.678246 101.076 -154.3511
62.125192 100.938 -154.6846
62.575377 100.802 -154.9993
63.028824 100.669 -155.2963
63.485557 100.539 -155.5772
63.945599 100.413 -155.8434
64.408975 100.291 -156.0964
64.875709 100.175 -156.3368
65.345825 100.065 -156.5650
65.819348 99.960 -156.7810
66.296302 99.863 -156.9847
66.776713 99.771 -157.1767
67.260604 99.687 -157.3581
67.748002 99.609 -157.5305
68.238932 99.537 -157.6960
68.733420 99.471 -157.8569
69.231490 99.410 -158.0153
69.733170 99.354 -158.1732
70.238485 99.303 -158.3326
70.747463 99.256 -158.4951
71.260128 99.213 -158.6621
71.776508 99.174 -158.8351
72.296630 99.138 -159.0150
72.820521 99.105 -159.2027
73.348209 99.075 -159.3987
73.879720 99.047 -159.6031
74.415083 99.022 -159.8157
74.954326 98.998 -160.0358
75.497475 98.975 -160.2626
76.044561 98.953 -160.4956
76.595612 98.931 -160.7342
77.150655 98.908 -160.9781
77.709720 98.885 -161.2275
78.272837 98.861 -161.4824
78.840034 98.834 -161.7432
79.411342 98.805 -162.0103
79.986789 98.773 -162.2841
80.566406 98.738 -162.5650
81.150224 98.700 -162.8533
81.738272 98.657 -163.1489
82.330581 98.612 -163.4516
82.927182 98.564 -163.7608
83.528107 98.515 -164.0762
84.133386 98.465 -164.3969
84.743051 98.418 -164.7224
85.357134 98.375 -165.0518
85.975667 98.340 -165.3842
86.598682 98.316 -165.7187
87.226212 98.306 -166.0540
87.858289 98.313 -166.3892
88.494946 98.341 -166.7230
89.136217 98.391 -167.0547
89.782135 98.464 -167.3834
90.432733 98.559 -167.7086
91.088046 98.674 -168.0297
91.748108 98.807 -168.3461
92.412952 98.953 -168.6572
93.082615 99.107 -168.9625
93.757130 99.264 -169.2612
94.436533 99.418 -169.5530
95.120859 99.564 -169.8372
95.810144 99.698 -170.1131
96.504423 99.818 -170.3798
97.203734 99.920 -170.6364
97.908112 100.005 -170.8817
98.617595 100.071 -171.1149
99.332219 100.120 -171.3352
100.052021 100.154 -171.5423
100.777039 100.174 -171.7361
101.507311 100.184 -171.9167
102.242875 100.184 -172.0844
102.983769 100.178 -172.2397
103.730032 100.167 -172.3833
104.481702 100.151 -172.5156
105.238820 100.131 -172.6371
106.001424 100.107 -172.7482
106.769554 100.077 -172.8491
107.543250 100.040 -172.9399
108.322553 99.995 -173.0212
109.107503 99.940 -173.0938
109.898141 99.873 -173.1585
110.694508 99.794 -173.2166
111.496646 99.702 -173.2696
112.304596 99.599 -173.3192
113.118402 99.484 -173.3670
113.938104 99.359 -173.4146
114.763747 99.227 -173.4635
115.595372 99.089 -173.5144
116.433024 98.948 -173.5678
117.276746 98.805 -173.6238
118.126581 98.663 -173.6822
118.982575 98.523 -173.7429
119.844772 98.386 -173.8057
120.713217 98.253 -173.8708
121.587954 98.123 -173.9385
122.469031 97.996 -174.0092
123.356492 97.871 -174.0835
124.250384 97.746 -174.1621
125.150753 97.621 -174.2458
126.057647 97.492 -174.3353
126.971113 97.360 -174.4312
127.891198 97.222 -174.5340
128.817950 97.077 -174.6443
129.751418 96.926 -174.7621
130.691651 96.767 -174.8874
131.638696 96.602 -175.0197
132.592604 96.432 -175.1583
133.553425 96.257 -175.3020
134.521208 96.081 -175.4495
135.496004 95.906 -175.5993
136.477864 95.736 -175.7498
137.466839 95.573 -175.8992
138.462981 95.421 -176.0460
139.466340 95.283 -176.1884
140.476971 95.160 -176.3249
141.494925 95.053 -176.4538
142.520256 94.962 -176.5736
143.553016 94.885 -176.6826
144.593260 94.821 -176.7792
145.641043 94.766 -176.8615
146.696418 94.715 -176.9279
147.759441 94.666 -176.9762
148.830166 94.614 -177.0045
149.908651 94.557 -177.0107
150.994951 94.492 -176.9928
152.089123 94.419 -176.9490
153.191223 94.338 -176.8772
154.301310 94.248 -176.7755
155.419441 94.151 -176.6417
156.545674 94.049 -176.4740
157.680069 93.945 -176.2704
158.822683 93.839 -176.0294
159.973578 93.733 -175.7498
161.132813 93.630 -175.4312
162.300447 93.530 -175.0735
163.476543 93.435 -174.6770
164.661162 93.345 -174.2424
165.854364 93.261 -173.7708
167.056213 93.183 -173.2637
168.266772 93.113 -172.7232
169.486102 93.052 -172.1514
170.714268 92.999 -171.5511
171.951334 92.955 -170.9254
173.197364 92.922 -170.2776
174.452424 92.899 -169.6112
175.716578 92.887 -168.9297
176.989893 92.885 -168.2364
178.272434 92.891 -167.5348
179.564270 92.906 -166.8284
180.865467 92.927 -166.1208
182.176092 92.953 -165.4151
183.496216 92.984 -164.7147
184.825905 93.017 -164.0223
186.165229 93.052 -163.3407
187.514259 93.089 -162.6722
188.873065 93.127 -162.0186
190.241717 93.167 -161.3816
191.620287 93.208 -160.7622
193.008847 93.252 -160.1609
194.407468 93.297 -159.5780
195.816225 93.345 -159.0134
197.235190 93.395 -158.4668
198.664438 93.447 -157.9379
200.104042 93.499 -157.4263
201.554078 93.552 -156.9313
203.014622 93.605 -156.4523
204.485750 93.656 -155.9884
205.967538 93.705 -155.5387
207.460064 93.752 -155.1024
208.963405 93.797 -154.6788
210.477640 93.839 -154.2675
212.002848 93.878 -153.8680
213.539108 93.915 -153.4801
215.086500 93.949 -153.1033
216.645105 93.982 -152.7368
218.215005 94.013 -152.3795
219.796281 94.043 -152.0301
221.389015 94.070 -151.6876
222.993292 94.094 -151.3511
224.609193 94.116 -151.0199
226.236804 94.134 -150.6937
227.876209 94.147 -150.3725
229.527494 94.156 -150.0561
231.190745 94.160 -149.7444
232.866048 94.159 -149.4371
234.553491 94.155 -149.1337
236.253163 94.146 -148.8337
237.965150 94.135 -148.5367
239.689544 94.123 -148.2426
241.426433 94.110 -147.9516
243.175909 94.097 -147.6642
244.938062 94.087 -147.3811
246.712984 94.078 -147.1029
248.500768 94.073 -146.8301
250.301507 94.072 -146.5627
252.115295 94.075 -146.3003
253.942226 94.083 -146.0424
255.782396 94.096 -145.7882
257.635901 94.116 -145.5375
259.502837 94.143 -145.2902
261.383301 94.177 -145.0468
263.277392 94.218 -144.8083
265.185209 94.267 -144.5761
267.106850 94.324 -144.3519
269.042417 94.388 -144.1376
270.992009 94.460 -143.9351
272.955729 94.538 -143.7461
274.933678 94.622 -143.5719
276.925961 94.711 -143.4136
278.932681 94.805 -143.2716
280.953942 94.903 -143.1460
282.989850 95.004 -143.0368
285.040511 95.110 -142.9437
287.106032 95.220 -142.8663
289.186521 95.334 -142.8043
291.282086 95.454 -142.7573
293.392836 95.579 -142.7250
295.518881 95.711 -142.7071
297.660333 95.847 -142.7036
299.817302 95.989 -142.7143
301.989902 96.135 -142.7391
304.178245 96.284 -142.7780
306.382446 96.433 -142.8309
308.602620 96.581 -142.8979
310.838882 96.726 -142.9789
313.091348 96.867 -143.0739
315.360137 97.001 -143.1831
317.645367 97.128 -143.3065
319.947156 97.247 -143.4442
322.265625 97.356 -143.5964
324.600895 97.456 -143.7633
326.953086 97.544 -143.9451
329.322323 97.622 -144.1418
331.708729 97.689 -144.3536
334.112427 97.745 -144.5806
336.533543 97.790 -144.8227
338.972204 97.825 -145.0801
341.428536 97.850 -145.3529
343.902668 97.866 -145.6413
346.394729 97.875 -145.9457
348.904848 97.878 -146.2663
351.433156 97.878 -146.6033
353.979786 97.875 -146.9568
356.544869 97.872 -147.3268
359.128540 97.873 -147.7128
361.730934 97.879 -148.1146
364.352185 97.892 -148.5315
366.992431 97.916 -148.9627
369.651810 97.951 -149.4072
372.330459 97.999 -149.8635
375.028519 98.061 -150.3303
377.746130 98.136 -150.8058
380.483434 98.222 -151.2879
383.240574 98.319 -151.7742
386.017693 98.424 -152.2623
388.814937 98.535 -152.7494
391.632450 98.649 -153.2327
394.470380 98.763 -153.7091
397.328875 98.876 -154.1758
400.208084 98.985 -154.6297
403.108157 99.090 -155.0681
406.029245 99.190 -155.4883
408.971500 99.284 -155.8881
411.935076 99.374 -156.2659
414.920127 99.459 -156.6207
417.926810 99.541 -156.9519
420.955280 99.621 -157.2600
424.005695 99.701 -157.5462
427.078215 99.781 -157.8125
430.173000 99.863 -158.0613
433.290211 99.947 -158.2958
436.430010 100.033 -158.5196
439.592562 100.120 -158.7363
442.778031 100.209 -158.9501
445.986583 100.296 -159.1646
449.218386 100.381 -159.3836
452.473607 100.461 -159.6106
455.752418 100.535 -159.8485
459.054987 100.602 -160.0999
462.381489 100.659 -160.3666
465.732096 100.706 -160.6499
469.106983 100.743 -160.9503
472.506325 100.768 -161.2676
475.930301 100.783 -161.6011
479.379088 100.787 -161.9495
482.852867 100.781 -162.3114
486.351817 100.767 -162.6848
489.876123 100.745 -163.0681
493.425968 100.715 -163.4594
497.001536 100.679 -163.8571
500.603014 100.637 -164.2597
504.230589 100.589 -164.6658
507.884452 100.535 -165.0742
511.564792 100.475 -165.4839
515.271802 100.410 -165.8938
519.005673 100.340 -166.3031
522.766602 100.265 -166.7109
526.554785 100.188 -167.1163
530.370418 100.108 -167.5185
534.213700 100.028 -167.9165
538.084833 99.951 -168.3093
541.984018 99.877 -168.6958
545.911457 99.808 -169.0748
549.867357 99.745 -169.4449
553.851922 99.689 -169.8048
557.865362 99.639 -170.1527
561.907884 99.594 -170.4872
565.979700 99.552 -170.8067
570.081022 99.512 -171.1098
574.212064 99.473 -171.3952
578.373042 99.431 -171.6620
582.564171 99.386 -171.9094
586.785671 99.337 -172.1370
591.037762 99.281 -172.3444
595.320665 99.218 -172.5319
599.634604 99.149 -172.6998
603.979804 99.072 -172.8489
608.356491 98.988 -172.9801
612.764893 98.897 -173.0947
617.205240 98.801 -173.1939
621.677763 98.701 -173.2795
626.182696 98.598 -173.3533
630.720274 98.494 -173.4173
635.290733 98.391 -173.4736
639.894312 98.290 -173.5247
644.531250 98.194 -173.5730
649.201789 98.104 -173.6212
653.906173 98.022 -173.6719
658.644647 97.947 -173.7278
663.417457 97.881 -173.7913
668.224854 97.821 -173.8650
673.067086 97.768 -173.9507
677.944408 97.718 -174.0504
682.857073 97.670 -174.1652
687.805336 97.622 -174.2959
692.789457 97.571 -174.4424
697.809695 97.515 -174.6041
702.866312 97.453 -174.7793
707.959571 97.381 -174.9651
713.089738 97.300 -175.1573
718.257080 97.206 -175.3504
723.461867 97.101 -175.5368
728.704370 96.982 -175.7072
733.984862 96.850 -175.8507
739.303619 96.704 -175.9543
744.660918 96.546 -176.0039
750.057038 96.377 -175.9842
755.492260 96.197 -175.8801
760.966869 96.008 -175.6768
766.481148 95.812 -175.3612
772.035387 95.611 -174.9226
777.629873 95.408 -174.3541
783.264900 95.205 -173.6526
788.940760 95.004 -172.8200
794.657750 94.807 -171.8630
800.416168 94.616 -170.7929
806.216313 94.432 -169.6254
812.058489 94.258 -168.3790
817.943000 94.094 -167.0746
823.870152 93.941 -165.7337
829.840255 93.801 -164.3775
835.853619 93.672 -163.0255
841.910559 93.556 -161.6951
848.011390 93.453 -160.4006
854.156430 93.363 -159.1537
860.346000 93.286 -157.9630
866.580422 93.222 -156.8347
872.860020 93.170 -155.7724
879.185124 93.130 -154.7782
885.556062 93.102 -153.8523
891.973166 93.085 -152.9936
898.436771 93.080 -152.1999
904.947215 93.086 -151.4678
911.504835 93.103 -150.7935
918.109975 93.131 -150.1722
924.762978 93.169 -149.5987
931.464192 93.218 -149.0676
938.213966 93.276 -148.5734
945.012651 93.345 -148.1109
951.860602 93.422 -147.6756
958.758176 93.509 -147.2637
965.705733 93.603 -146.8726
972.703635 93.706 -146.5010
979.752246 93.816 -146.1494
986.851935 93.933 -145.8193
994.003071 94.057 -145.5138
1001.206027 94.188 -145.2370
1008.461179 94.325 -144.9935
1015.768904 94.469 -144.7881
1023.129584 94.620 -144.6252
1030.543603 94.776 -144.5087
1038.011347 94.938 -144.4415
1045.533205 95.105 -144.4253
1053.109569 95.277 -144.4604
1060.740836 95.452 -144.5459
1068.427401 95.628 -144.6793
1076.169666 95.805 -144.8571
1083.968035 95.979 -145.0743
1091.822915 96.150 -145.3248
1099.734713 96.315 -145.6016
1107.703844 96.471 -145.8968
1115.730723 96.618 -146.2021
1123.815768 96.754 -146.5092
1131.959400 96.879 -146.8102
1140.162045 96.993 -147.0984
1148.424129 97.096 -147.3691
1156.746083 97.190 -147.6205
1165.128342 97.276 -147.8536
1173.571343 97.356 -148.0724
1182.075524 97.430 -148.2831
1190.641331 97.501 -148.4921
1199.269209 97.567 -148.7043
1207.959608 97.628 -148.9213
1216.712981 97.685 -149.1401
1225.529785 97.736 -149.3528
1234.410479 97.780 -149.5474
1243.355526 97.819 -149.7089
1252.365393 97.851 -149.8216
1261.440549 97.880 -149.8713
1270.581467 97.907 -149.8479
1279.788624 97.935 -149.7474
1289.062500 97.968 -149.5733
1298.403578 98.007 -149.3373
1307.812346 98.056 -149.0578
1317.289293 98.117 -148.7584
1326.834914 98.189 -148.4651
1336.449707 98.272 -148.2030
1346.134173 98.365 -147.9946
1355.888816 98.466 -147.8577
1365.714145 98.571 -147.8050
1375.610673 98.679 -147.8443
1385.578915 98.785 -147.9788
1395.619391 98.887 -148.2080
1405.732624 98.984 -148.5286
1415.919142 99.073 -148.9347
1426.179476 99.152 -149.4186
1436.514160 99.222 -149.9711
1446.923734 99.281 -150.5819
1457.408740 99.329 -151.2398
1467.969724 99.367 -151.9330
1478.607238 99.395 -152.6501
1489.321836 99.414 -153.3798
1500.114076 99.426 -154.1126
1510.984521 99.431 -154.8415
1521.933737 99.432 -155.5625
1532.962297 99.428 -156.2760
1544.070773 99.421 -156.9859
1555.259747 99.410 -157.6996
1566.529800 99.395 -158.4256
1577.881521 99.373 -159.1709
1589.315501 99.342 -159.9393
1600.832336 99.298 -160.7289
1612.432627 99.239 -161.5314
1624.116978 99.161 -162.3320
1635.886000 99.063 -163.1100
1647.740304 98.942 -163.8392
1659.680509 98.799 -164.4897
1671.707238 98.635 -165.0289
1683.821118 98.451 -165.4237
1696.022780 98.251 -165.6425
1708.312860 98.039 -165.6579
1720.692000 97.822 -165.4496
1733.160843 97.606 -165.0074
1745.720041 97.397 -164.3336
1758.370248 97.205 -163.4454
1771.112124 97.033 -162.3738
1783.946332 96.887 -161.1613
1796.873543 96.770 -159.8579
1809.894429 96.681 -158.5145
1823.009670 96.620 -157.1777
1836.219950 96.583 -155.8854
1849.525956 96.567 -154.6650
1862.928384 96.567 -153.5338
1876.427931 96.579 -152.5007
1890.025301 96.600 -151.5687
1903.721204 96.626 -150.7366
1917.516352 96.654 -149.9996
1931.411466 96.680 -149.3489
1945.407270 96.701 -148.7712
1959.504493 96.715 -148.2489
1973.703870 96.718 -147.7612
1988.006142 96.709 -147.2852
2002.412054 96.688 -146.7984
2016.922357 96.654 -146.2799
2031.537808 96.609 -145.7126
2046.259169 96.554 -145.0847
2061.087206 96.492 -144.3907
2076.022694 96.425 -143.6321
2091.066410 96.355 -142.8173
2106.219139 96.286 -141.9601
2121.481671 96.219 -141.0772
2136.854802 96.156 -140.1857
2152.339333 96.099 -139.3008
2167.936071 96.048 -138.4346
2183.645829 96.003 -137.5957
2199.469427 95.965 -136.7898
2215.407689 95.935 -136.0202
2231.461446 95.912 -135.2881
2247.631536 95.896 -134.5929
2263.918800 95.887 -133.9326
2280.324089 95.885 -133.3044
2296.848258 95.889 -132.7062
2313.492167 95.900 -132.1374
2330.256685 95.918 -131.5997
2347.142685 95.943 -131.0971
2364.151049 95.974 -130.6360
2381.282662 96.011 -130.2243
2398.538418 96.054 -129.8710
2415.919216 96.102 -129.5848
2433.425962 96.152 -129.3739
2451.059570 96.204 -129.2450
2468.820958 96.255 -129.2021
2486.711052 96.303 -129.2460
2504.730786 96.345 -129.3726
2522.881098 96.378 -129.5726
2541.162934 96.401 -129.8306
2559.577248 96.410 -130.1249
2578.125000 96.406 -130.4281
2596.807157 96.386 -130.7075
2615.624692 96.353 -130.9255
2634.578586 96.309 -131.0409
2653.669829 96.257 -131.0116
2672.899414 96.204 -130.7979
2692.268345 96.159 -130.3691
2711.777632 96.129 -129.7097
2731.428290 96.124 -128.8262
2751.221345 96.153 -127.7508
2771.157829 96.220 -126.5395
2791.238781 96.326 -125.2640
2811.465248 96.467 -123.9995
2831.838284 96.637 -122.8119
2852.358952 96.828 -121.7491
2873.028321 97.030 -120.8372
2893.847468 97.236 -120.0829
2914.817480 97.439 -119.4775
2935.939449 97.634 -119.0028
2957.214476 97.818 -118.6370
2978.643672 97.989 -118.3586
3000.228152 98.148 -118.1492
3021.969041 98.293 -117.9953
3043.867475 98.427 -117.8881
3065.924593 98.548 -117.8223
3088.141547 98.659 -117.7942
3110.519493 98.760 -117.7999
3133.059600 98.851 -117.8347
3155.763041 98.933 -117.8935
3178.631001 99.009 -117.9716
3201.664672 99.078 -118.0662
3224.865254 99.143 -118.1771
3248.233957 99.205 -118.3066
3271.771999 99.266 -118.4590
3295.480608 99.325 -118.6396
3319.361019 99.384 -118.8538
3343.414477 99.441 -119.1065
3367.642236 99.498 -119.4020
3392.045560 99.553 -119.7446
3416.625721 99.606 -120.1382
3441.383999 99.656 -120.5864
3466.321686 99.703 -121.0923
3491.440082 99.744 -121.6578
3516.740496 99.778 -122.2820
3542.224247 99.803 -122.9605
3567.892664 99.816 -123.6826
3593.747085 99.815 -124.4302
3619.788858 99.795 -125.1758
3646.019340 99.756 -125.8813
3672.439900 99.697 -126.4995
3699.051913 99.618 -126.9752
3725.856768 99.525 -127.2516
3752.855862 99.425 -127.2785
3780.050603 99.327 -127.0245
3807.442408 99.244 -126.4889
3835.032705 99.187 -125.7078
3862.822933 99.166 -124.7505
3890.814540 99.184 -123.7044
3919.008986 99.240 -122.6554
3947.407741 99.332 -121.6710
3976.012284 99.451 -120.7931
4004.824108 99.592 -120.0400
4033.844715 99.750 -119.4149
4063.075616 99.920 -118.9146
4092.518337 100.098 -118.5364
4122.174412 100.281 -118.2792
4152.045387 100.467 -118.1416
4182.132820 100.651 -118.1193
4212.438278 100.832 -118.2038
4242.963342 101.006 -118.3830
4273.709604 101.172 -118.6436
4304.678665 101.330 -118.9733
4335.872141 101.480 -119.3629
4367.291658 101.620 -119.8063
4398.938854 101.751 -120.2993
4430.815378 101.870 -120.8376
4462.922893 101.978 -121.4160
4495.263072 102.072 -122.0279
4527.837601 102.152 -122.6650
4560.648179 102.217 -123.3182
4593.696515 102.268 -123.9776
4626.984334 102.302 -124.6325
4660.513370 102.323 -125.2719
4694.285371 102.330 -125.8844
4728.302098 102.325 -126.4601
4762.565324 102.312 -126.9921
4797.076835 102.293 -127.4784
4831.838432 102.272 -127.9225
4866.851925 102.251 -128.3328
4902.119140 102.233 -128.7204
4937.641916 102.220 -129.0963
4973.422105 102.211 -129.4680
5009.461572 102.207 -129.8392
5045.762195 102.208 -130.2104
5082.325868 102.214 -130.5797
5119.154496 102.227 -130.9456
5156.250000 102.246 -131.3079
5193.614313 102.274 -131.6683
5231.249383 102.309 -132.0300
5269.157173 102.353 -132.3969
5307.339658 102.406 -132.7728
5345.798829 102.468 -133.1620
5384.536691 102.540 -133.5694
5423.555263 102.622 -134.0019
5462.856580 102.714 -134.4677
5502.442691 102.818 -134.9760
5542.315659 102.934 -135.5357
5582.477563 103.062 -136.1552
5622.930497 103.203 -136.8423
5663.676569 103.359 -137.6063
5704.717904 103.530 -138.4587
5746.056642 103.717 -139.4151
5787.694937 103.920 -140.4944
5829.634960 104.138 -141.7177
5871.878898 104.367 -143.1050
5914.428953 104.602 -144.6728
5957.287343 104.840 -146.4322
6000.456303 105.075 -148.3881
6043.938083 105.301 -150.5401
6087.734950 105.512 -152.8833
6131.849187 105.705 -155.4096
6176.283094 105.873 -158.1076
6221.038987 106.012 -160.9632
6266.119200 106.119 -163.9598
6311.526083 106.189 -167.0792
6357.262002 106.221 -170.3024
6403.329344 106.210 -173.6095
6449.730508 106.155 -176.9797
6496.467914 106.053 179.6106
6543.543998 105.901 176.1879
6590.961215 105.699 172.7826
6638.722037 105.443 169.4289
6686.828954 105.134 166.1651
6735.284473 104.771 163.0338
6784.091120 104.354 160.0816
6833.251441 103.885 157.3578
6882.767998 103.366 154.9127
6932.643372 102.800 152.7947
6982.880164 102.194 151.0504
7033.480992 101.552 149.7254
7084.448495 100.882 148.8675
7135.785329 100.192 148.5266
7187.494171 99.492 148.7535
7239.577717 98.793 149.5939
7292.038681 98.113 151.0783
7344.879799 97.467 153.2078
7398.103826 96.878 155.9359
7451.713536 96.365 159.1514
7505.711724 95.948 162.6732
7560.101205 95.641 166.2664
7614.884815 95.444 169.6818
7670.065409 95.353 172.7012
7725.645865 95.348 175.1698
7781.629080 95.408 177.0064
7838.017972 95.507 178.1951
7894.815481 95.623 178.7678
7952.024569 95.735 178.7855
8009.648217 95.826 178.3255
8067.689429 95.881 177.4750
8126.151233 95.889 176.3326
8185.036674 95.840 175.0128
8244.348824 95.729 173.6512
8304.090774 95.553 172.4113
8364.265639 95.315 171.4923
8424.876556 95.022 171.1397
8485.926684 94.690 171.6539
8547.419207 94.344 173.3863
8609.357330 94.019 176.6966
8671.744282 93.760 -178.1742
8734.583316 93.614 -171.3388
8797.877707 93.620 -163.4776
8861.630756 93.797 -155.7129
8925.845785 94.141 -149.0841
8990.526143 94.625 -144.1249
9055.675202 95.212 -140.8800
9121.296357 95.863 -139.1401
9187.393031 96.548 -138.6293
9253.968668 97.244 -139.0922
9321.026740 97.937 -140.3242
9388.570742 98.616 -142.1760
9456.604196 99.275 -144.5467
9525.130648 99.908 -147.3732
9594.153671 100.510 -150.6199
9663.676863 101.075 -154.2683
9733.703850 101.594 -158.3078
9804.238280 102.062 -162.7285
9875.283832 102.469 -167.5145
9946.844210 102.808 -172.6411
10018.923143 103.072 -178.0723
10091.524390 103.255 176.2396
10164.651736 103.352 170.3522
10238.308993 103.364 164.3275
10312.500000 103.291 158.2267
10387.228626 103.133 152.1085
10462.498767 102.895 146.0292
10538.314345 102.578 140.0443
10614.679315 102.185 134.2067
10691.597657 101.722 128.5634
10769.073381 101.194 123.1539
10847.110526 100.605 118.0085
10925.713161 99.963 113.1480
11004.885382 99.272 108.5839
11084.631318 98.539 104.3202
11164.955126 97.769 100.3546
11245.860993 96.967 96.6802
11327.353138 96.138 93.2865
11409.435808 95.285 90.1599
11492.113283 94.412 87.2835
11575.389873 93.524 84.6363
11659.269920 92.625 82.1905
11743.757796 91.721 79.9086
11828.857906 90.821 77.7390
11914.574686 89.937 75.6107
12000.912606 89.086 73.4287
12087.876166 88.290 71.0703
12175.469900 87.579 68.3820
12263.698373 86.989 65.1788
12352.566187 86.556 61.2419
12442.077974 86.309 56.3169
12532.238400 86.262 50.1105
12623.052165 86.408 42.2891
12714.524005 86.722 32.4985
12806.658687 87.167 20.4433
12899.461015 87.705 6.0762
12992.935827 88.301 -10.1331
13087.087996 88.924 -27.1320
13181.922430 89.551 -43.6930
13277.444074 90.163 -58.9991
13373.657907 90.747 -72.8209
13470.568945 91.292 -85.3026
13568.182241 91.789 -96.7109
13666.502883 92.232 -107.2986
13765.535996 92.619 -117.2615
13865.286744 92.947 -126.7372
13965.760328 93.217 -135.8169
14066.961984 93.430 -144.5581
14168.896989 93.589 -152.9962
14271.570658 93.700 -161.1517
14374.988342 93.768 -169.0374
14479.155433 93.802 -176.6630
14584.077362 93.813 175.9607
14689.759598 93.815 168.8181
14796.207652 93.819 161.8864
14903.427072 93.841 155.1331
15011.423448 93.895 148.5162
15120.202410 93.990 141.9852
15229.769630 94.133 135.4818
15340.130819 94.325 128.9433
15451.291730 94.562 122.3065
15563.258160 94.836 115.5110
15676.035944 95.133 108.5040
15789.630962 95.441 101.2440
15904.049137 95.746 93.7020
16019.296433 96.038 85.8624
16135.378859 96.306 77.7209
16252.302465 96.545 69.2821
16370.073348 96.750 60.5565
16488.697648 96.919 51.5585
16608.181548 97.054 42.3046
16728.531278 97.157 32.8116
16849.753112 97.235 23.0939
16971.853368 97.296 13.1624
17094.838414 97.351 3.0207
17218.714660 97.413 -7.3351
17343.488565 97.495 -17.9175
17469.166632 97.607 -28.7474
17595.755415 97.757 -39.8534
17723.261512 97.948 -51.2687
17851.691571 98.176 -63.0292
17981.052287 98.430 -75.1682
18111.350404 98.695 -87.7106
18242.592715 98.953 -100.6688
18374.786062 99.185 -114.0389
18507.937336 99.376 -127.8049
18642.053479 99.512 -141.9509
18777.141484 99.584 -156.4924
18913.208391 99.590 -171.5312
19050.261296 99.532 172.6396
19188.307342 99.419 155.3527
19327.353727 99.262 135.3069
19467.407699 99.079 110.7225
19608.476560 98.891 81.9797
19750.567664 98.721 55.5791
19893.688419 98.591 37.9771
20037.846286 98.521 29.7367
