* Measurement data measured by REW V5.31.3
* Source: EXCL: Headset (USB-C to 3.5mm Headphone Jack Adapter), MICROPHONE (Master Volume), 0, volume: 0.260
* Format: 256k Log Swept Sine, 1 sweep at -12.0 dBFS with no timing reference
* Dated: Feb 10, 2025 1:55:13 PM
* REW Settings:
*  C-weighting compensation: Off
*  Target level: 75.0 dB
* Note: ; 
* Measurement: Maxwell (WC FreeZe) R5
* Smoothing: 1/6 octave
* Frequency Step: 96 ppo
* Start Frequency: 20.0 Hz
*
* Freq(Hz) SPL(dB) Phase(degrees)
20.141602 94.732 41.5334
20.287556 94.790 41.0876
20.434568 94.866 40.4884
20.582645 94.955 39.7472
20.731796 95.052 38.8761
20.882027 95.153 37.8875
21.033346 95.253 36.7937
21.185763 95.350 35.6065
21.339284 95.442 34.3373
21.493917 95.526 32.9972
21.649671 95.602 31.5970
21.806553 95.671 30.1468
21.964572 95.733 28.6570
22.123737 95.789 27.1369
22.284054 95.840 25.5954
22.445534 95.888 24.0407
22.608183 95.934 22.4802
22.772012 95.981 20.9201
22.937027 96.030 19.3655
23.103238 96.082 17.8207
23.270654 96.140 16.2886
23.439282 96.204 14.7711
23.609133 96.278 13.2691
23.780215 96.361 11.7825
23.952536 96.456 10.3106
24.126106 96.561 8.8520
24.300934 96.678 7.4048
24.477028 96.805 5.9669
24.654399 96.942 4.5362
24.833055 97.087 3.1106
25.013005 97.238 1.6879
25.194260 97.392 0.2664
25.376828 97.549 -1.1557
25.560719 97.705 -2.5800
25.745942 97.859 -4.0079
25.932508 98.008 -5.4411
26.120426 98.151 -6.8814
26.309705 98.286 -8.3305
26.500356 98.414 -9.7904
26.692388 98.533 -11.2634
26.885812 98.642 -12.7514
27.080638 98.743 -14.2562
27.276876 98.834 -15.7793
27.474535 98.918 -17.3213
27.673627 98.995 -18.8823
27.874161 99.067 -20.4613
28.076149 99.136 -22.0567
28.279600 99.205 -23.6657
28.484526 99.277 -25.2853
28.690937 99.356 -26.9119
28.898843 99.443 -28.5418
29.108256 99.542 -30.1715
29.319186 99.655 -31.7981
29.531645 99.781 -33.4189
29.745644 99.921 -35.0322
29.961193 100.072 -36.6367
30.178304 100.231 -38.2318
30.396989 100.395 -39.8171
30.617258 100.558 -41.3925
30.839123 100.715 -42.9579
31.062596 100.861 -44.5131
31.287688 100.992 -46.0576
31.514412 101.102 -47.5908
31.742778 101.189 -49.1120
31.972800 101.248 -50.6200
32.204488 101.279 -52.1139
32.437855 101.279 -53.5925
32.672913 101.249 -55.0547
32.909674 101.188 -56.4996
33.148151 101.100 -57.9262
33.388356 100.985 -59.3339
33.630302 100.847 -60.7220
33.874001 100.689 -62.0902
34.119466 100.515 -63.4384
34.366710 100.329 -64.7662
34.615745 100.135 -66.0736
34.866585 99.937 -67.3605
35.119243 99.739 -68.6266
35.373731 99.546 -69.8716
35.630064 99.360 -71.0954
35.888254 99.186 -72.2977
36.148315 99.025 -73.4787
36.410261 98.881 -74.6386
36.674104 98.756 -75.7782
36.939860 98.651 -76.8986
37.207542 98.568 -78.0011
37.477163 98.509 -79.0874
37.748738 98.473 -80.1593
38.022281 98.461 -81.2182
38.297806 98.473 -82.2658
38.575327 98.509 -83.3034
38.854860 98.568 -84.3322
39.136419 98.649 -85.3529
39.420017 98.752 -86.3661
39.705671 98.876 -87.3723
39.993395 99.018 -88.3714
40.283203 99.179 -89.3638
40.575112 99.355 -90.3496
40.869136 99.546 -91.3297
41.165290 99.749 -92.3054
41.463591 99.964 -93.2789
41.764053 100.186 -94.2531
42.066693 100.415 -95.2314
42.371525 100.648 -96.2175
42.678567 100.882 -97.2150
42.987834 101.115 -98.2270
43.299341 101.343 -99.2563
43.613106 101.565 -100.3049
43.929145 101.777 -101.3738
44.247473 101.978 -102.4637
44.568109 102.166 -103.5741
44.891068 102.338 -104.7040
45.216367 102.492 -105.8521
45.544023 102.629 -107.0167
45.874054 102.745 -108.1960
46.206476 102.841 -109.3887
46.541307 102.916 -110.5937
46.878565 102.970 -111.8101
47.218266 103.002 -113.0368
47.560429 103.013 -114.2724
47.905072 103.002 -115.5147
48.252212 102.971 -116.7606
48.601867 102.921 -118.0063
48.954056 102.853 -119.2469
49.308798 102.769 -120.4775
49.666109 102.670 -121.6929
50.026010 102.558 -122.8881
50.388520 102.437 -124.0588
50.753656 102.307 -125.2013
51.121437 102.170 -126.3128
51.491884 102.030 -127.3910
51.865016 101.886 -128.4345
52.240851 101.741 -129.4425
52.619410 101.596 -130.4144
53.000712 101.452 -131.3500
53.384777 101.310 -132.2492
53.771625 101.169 -133.1122
54.161276 101.030 -133.9389
54.553751 100.893 -134.7294
54.949070 100.756 -135.4838
55.347254 100.620 -136.2021
55.748323 100.483 -136.8846
56.152298 100.346 -137.5318
56.559201 100.208 -138.1445
56.969052 100.068 -138.7240
57.381873 99.926 -139.2719
57.797686 99.783 -139.7900
58.216512 99.639 -140.2801
58.638373 99.494 -140.7440
59.063291 99.347 -141.1832
59.491288 99.199 -141.5992
59.922386 99.051 -141.9931
60.356608 98.903 -142.3657
60.793977 98.754 -142.7174
61.234515 98.606 -143.0488
61.678246 98.460 -143.3599
62.125192 98.315 -143.6508
62.575377 98.173 -143.9217
63.028824 98.035 -144.1729
63.485557 97.900 -144.4050
63.945599 97.770 -144.6189
64.408975 97.645 -144.8153
64.875709 97.525 -144.9954
65.345825 97.410 -145.1600
65.819348 97.302 -145.3099
66.296302 97.200 -145.4462
66.776713 97.105 -145.5700
67.260604 97.015 -145.6829
67.748002 96.933 -145.7872
68.238932 96.856 -145.8849
68.733420 96.785 -145.9787
69.231490 96.719 -146.0705
69.733170 96.658 -146.1620
70.238485 96.602 -146.2546
70.747463 96.550 -146.3490
71.260128 96.502 -146.4458
71.776508 96.459 -146.5457
72.296630 96.419 -146.6491
72.820521 96.382 -146.7564
73.348209 96.348 -146.8681
73.879720 96.317 -146.9846
74.415083 96.289 -147.1062
74.954326 96.262 -147.2333
75.497475 96.237 -147.3663
76.044561 96.214 -147.5056
76.595612 96.191 -147.6514
77.150655 96.168 -147.8041
77.709720 96.144 -147.9640
78.272837 96.119 -148.1315
78.840034 96.092 -148.3066
79.411342 96.063 -148.4895
79.986789 96.031 -148.6800
80.566406 95.996 -148.8774
81.150224 95.957 -149.0811
81.738272 95.916 -149.2906
82.330581 95.872 -149.5051
82.927182 95.825 -149.7241
83.528107 95.778 -149.9469
84.133386 95.732 -150.1729
84.743051 95.688 -150.4013
85.357134 95.649 -150.6315
85.975667 95.617 -150.8632
86.598682 95.597 -151.0960
87.226212 95.591 -151.3298
87.858289 95.602 -151.5642
88.494946 95.634 -151.7985
89.136217 95.687 -152.0320
89.782135 95.763 -152.2637
90.432733 95.861 -152.4927
91.088046 95.980 -152.7177
91.748108 96.116 -152.9375
92.412952 96.264 -153.1508
93.082615 96.420 -153.3561
93.757130 96.578 -153.5526
94.436533 96.733 -153.7395
95.120859 96.880 -153.9165
95.810144 97.016 -154.0834
96.504423 97.136 -154.2401
97.203734 97.239 -154.3865
97.908112 97.324 -154.5222
98.617595 97.391 -154.6468
99.332219 97.442 -154.7595
100.052021 97.477 -154.8599
100.777039 97.499 -154.9472
101.507311 97.510 -155.0212
102.242875 97.513 -155.0816
102.983769 97.509 -155.1286
103.730032 97.499 -155.1620
104.481702 97.486 -155.1821
105.238820 97.468 -155.1888
106.001424 97.446 -155.1821
106.769554 97.418 -155.1622
107.543250 97.383 -155.1295
108.322553 97.340 -155.0851
109.107503 97.286 -155.0300
109.898141 97.222 -154.9658
110.694508 97.145 -154.8938
111.496646 97.056 -154.8153
112.304596 96.956 -154.7317
113.118402 96.844 -154.6440
113.938104 96.724 -154.5535
114.763747 96.596 -154.4616
115.595372 96.464 -154.3698
116.433024 96.329 -154.2792
117.276746 96.192 -154.1913
118.126581 96.057 -154.1071
118.982575 95.925 -154.0275
119.844772 95.795 -153.9529
120.713217 95.670 -153.8838
121.587954 95.548 -153.8199
122.469031 95.428 -153.7611
123.356492 95.311 -153.7073
124.250384 95.194 -153.6588
125.150753 95.076 -153.6158
126.057647 94.955 -153.5791
126.971113 94.829 -153.5490
127.891198 94.699 -153.5261
128.817950 94.561 -153.5103
129.751418 94.417 -153.5011
130.691651 94.265 -153.4979
131.638696 94.106 -153.4998
132.592604 93.941 -153.5055
133.553425 93.773 -153.5138
134.521208 93.603 -153.5234
135.496004 93.434 -153.5330
136.477864 93.271 -153.5410
137.466839 93.115 -153.5458
138.462981 92.971 -153.5459
139.466340 92.841 -153.5398
140.476971 92.727 -153.5263
141.494925 92.630 -153.5042
142.520256 92.549 -153.4723
143.553016 92.482 -153.4294
144.593260 92.428 -153.3741
145.641043 92.382 -153.3048
146.696418 92.341 -153.2202
147.759441 92.300 -153.1185
148.830166 92.257 -152.9981
149.908651 92.208 -152.8571
150.994951 92.152 -152.6929
152.089123 92.087 -152.5030
153.191223 92.014 -152.2845
154.301310 91.932 -152.0347
155.419441 91.844 -151.7513
156.545674 91.751 -151.4320
157.680069 91.654 -151.0753
158.822683 91.557 -150.6796
159.973578 91.461 -150.2441
161.132813 91.368 -149.7681
162.300447 91.279 -149.2512
163.476543 91.195 -148.6939
164.661162 91.116 -148.0968
165.854364 91.044 -147.4613
167.056213 90.980 -146.7893
168.266772 90.922 -146.0835
169.486102 90.873 -145.3466
170.714268 90.833 -144.5818
171.951334 90.801 -143.7921
173.197364 90.780 -142.9807
174.452424 90.768 -142.1506
175.716578 90.767 -141.3046
176.989893 90.774 -140.4456
178.272434 90.790 -139.5768
179.564270 90.814 -138.7010
180.865467 90.844 -137.8213
182.176092 90.880 -136.9406
183.496216 90.919 -136.0616
184.825905 90.962 -135.1869
186.165229 91.007 -134.3190
187.514259 91.054 -133.4603
188.873065 91.103 -132.6129
190.241717 91.154 -131.7787
191.620287 91.208 -130.9590
193.008847 91.264 -130.1550
194.407468 91.324 -129.3672
195.816225 91.387 -128.5958
197.235190 91.452 -127.8408
198.664438 91.519 -127.1018
200.104042 91.588 -126.3786
201.554078 91.658 -125.6706
203.014622 91.727 -124.9778
204.485750 91.796 -124.2996
205.967538 91.863 -123.6361
207.460064 91.928 -122.9871
208.963405 91.991 -122.3527
210.477640 92.052 -121.7326
212.002848 92.110 -121.1264
213.539108 92.166 -120.5338
215.086500 92.220 -119.9539
216.645105 92.272 -119.3860
218.215005 92.323 -118.8290
219.796281 92.373 -118.2820
221.389015 92.421 -117.7439
222.993292 92.467 -117.2136
224.609193 92.510 -116.6902
226.236804 92.551 -116.1729
227.876209 92.587 -115.6605
229.527494 92.619 -115.1521
231.190745 92.647 -114.6469
232.866048 92.671 -114.1444
234.553491 92.690 -113.6442
236.253163 92.706 -113.1460
237.965150 92.720 -112.6501
239.689544 92.733 -112.1568
241.426433 92.745 -111.6669
243.175909 92.759 -111.1815
244.938062 92.774 -110.7018
246.712984 92.792 -110.2289
248.500768 92.814 -109.7633
250.301507 92.840 -109.3054
252.115295 92.872 -108.8552
253.942226 92.909 -108.4127
255.782396 92.953 -107.9777
257.635901 93.003 -107.5504
259.502837 93.061 -107.1313
261.383301 93.127 -106.7210
263.277392 93.200 -106.3206
265.185209 93.282 -105.9314
267.106850 93.371 -105.5551
269.042417 93.468 -105.1931
270.992009 93.573 -104.8470
272.955729 93.683 -104.5182
274.933678 93.800 -104.2078
276.925961 93.921 -103.9167
278.932681 94.047 -103.6456
280.953942 94.177 -103.3948
282.989850 94.310 -103.1641
285.040511 94.447 -102.9533
287.106032 94.588 -102.7615
289.186521 94.733 -102.5881
291.282086 94.883 -102.4324
293.392836 95.039 -102.2941
295.518881 95.200 -102.1731
297.660333 95.366 -102.0694
299.817302 95.536 -101.9830
301.989902 95.710 -101.9139
304.178245 95.886 -101.8622
306.382446 96.062 -101.8276
308.602620 96.235 -101.8099
310.838882 96.405 -101.8091
313.091348 96.570 -101.8250
315.360137 96.728 -101.8575
317.645367 96.878 -101.9062
319.947156 97.018 -101.9713
322.265625 97.149 -102.0523
324.600895 97.269 -102.1494
326.953086 97.378 -102.2622
329.322323 97.475 -102.3907
331.708729 97.561 -102.5347
334.112427 97.635 -102.6939
336.533543 97.697 -102.8685
338.972204 97.749 -103.0583
341.428536 97.790 -103.2635
343.902668 97.823 -103.4843
346.394729 97.847 -103.7210
348.904848 97.865 -103.9736
351.433156 97.879 -104.2423
353.979786 97.890 -104.5269
356.544869 97.901 -104.8271
359.128540 97.915 -105.1425
361.730934 97.934 -105.4725
364.352185 97.960 -105.8165
366.992431 97.996 -106.1738
369.651810 98.043 -106.5436
372.330459 98.103 -106.9248
375.028519 98.176 -107.3161
377.746130 98.261 -107.7157
380.483434 98.357 -108.1215
383.240574 98.463 -108.5307
386.017693 98.576 -108.9401
388.814937 98.693 -109.3463
391.632450 98.812 -109.7456
394.470380 98.931 -110.1340
397.328875 99.047 -110.5081
400.208084 99.159 -110.8642
403.108157 99.266 -111.1992
406.029245 99.366 -111.5105
408.971500 99.461 -111.7957
411.935076 99.550 -112.0533
414.920127 99.634 -112.2821
417.926810 99.714 -112.4818
420.955280 99.792 -112.6526
424.005695 99.869 -112.7956
427.078215 99.946 -112.9123
430.173000 100.025 -113.0050
433.290211 100.105 -113.0765
436.430010 100.188 -113.1302
439.592562 100.272 -113.1698
442.778031 100.357 -113.1992
445.986583 100.442 -113.2228
449.218386 100.525 -113.2445
452.473607 100.603 -113.2684
455.752418 100.676 -113.2982
459.054987 100.742 -113.3372
462.381489 100.798 -113.3877
465.732096 100.845 -113.4518
469.106983 100.881 -113.5304
472.506325 100.905 -113.6238
475.930301 100.920 -113.7318
479.379088 100.923 -113.8532
482.852867 100.917 -113.9869
486.351817 100.902 -114.1311
489.876123 100.879 -114.2840
493.425968 100.849 -114.4435
497.001536 100.812 -114.6078
500.603014 100.768 -114.7749
504.230589 100.719 -114.9433
507.884452 100.663 -115.1113
511.564792 100.602 -115.2776
515.271802 100.535 -115.4408
519.005673 100.462 -115.5996
522.766602 100.385 -115.7529
526.554785 100.305 -115.8994
530.370418 100.222 -116.0379
534.213700 100.140 -116.1671
538.084833 100.059 -116.2859
541.984018 99.981 -116.3929
545.911457 99.909 -116.4870
549.867357 99.842 -116.5669
553.851922 99.782 -116.6311
557.865362 99.728 -116.6784
561.907884 99.680 -116.7076
565.979700 99.635 -116.7175
570.081022 99.592 -116.7069
574.212064 99.550 -116.6749
578.373042 99.506 -116.6207
582.564171 99.459 -116.5435
586.785671 99.408 -116.4429
591.037762 99.351 -116.3184
595.320665 99.287 -116.1699
599.634604 99.217 -115.9976
603.979804 99.139 -115.8019
608.356491 99.054 -115.5835
612.764893 98.963 -115.3434
617.205240 98.867 -115.0828
621.677763 98.766 -114.8034
626.182696 98.663 -114.5071
630.720274 98.558 -114.1962
635.290733 98.455 -113.8735
639.894312 98.354 -113.5419
644.531250 98.258 -113.2046
649.201789 98.169 -112.8648
653.906173 98.087 -112.5257
658.644647 98.014 -112.1902
663.417457 97.949 -111.8612
668.224854 97.891 -111.5409
673.067086 97.838 -111.2312
677.944408 97.790 -110.9336
682.857073 97.744 -110.6489
687.805336 97.698 -110.3776
692.789457 97.649 -110.1195
697.809695 97.595 -109.8736
702.866312 97.534 -109.6384
707.959571 97.465 -109.4113
713.089738 97.386 -109.1884
718.257080 97.296 -108.9646
723.461867 97.194 -108.7334
728.704370 97.080 -108.4861
733.984862 96.953 -108.2128
739.303619 96.813 -107.9014
744.660918 96.661 -107.5384
750.057038 96.498 -107.1090
755.492260 96.325 -106.5979
760.966869 96.143 -105.9896
766.481148 95.953 -105.2697
772.035387 95.759 -104.4258
777.629873 95.561 -103.4485
783.264900 95.362 -102.3325
788.940760 95.164 -101.0772
794.657750 94.969 -99.6874
800.416168 94.780 -98.1732
806.216313 94.597 -96.5498
812.058489 94.423 -94.8359
817.943000 94.259 -93.0531
823.870152 94.105 -91.2241
829.840255 93.963 -89.3714
835.853619 93.832 -87.5157
841.910559 93.715 -85.6756
848.011390 93.610 -83.8667
854.156430 93.517 -82.1016
860.346000 93.438 -80.3895
866.580422 93.370 -78.7373
872.860020 93.315 -77.1490
879.185124 93.273 -75.6265
885.556062 93.241 -74.1701
891.973166 93.222 -72.7784
898.436771 93.214 -71.4489
904.947215 93.216 -70.1779
911.504835 93.230 -68.9608
918.109975 93.255 -67.7925
924.762978 93.290 -66.6672
931.464192 93.335 -65.5787
938.213966 93.391 -64.5211
945.012651 93.456 -63.4886
951.860602 93.531 -62.4762
958.758176 93.614 -61.4800
965.705733 93.707 -60.4973
972.703635 93.807 -59.5271
979.752246 93.915 -58.5700
986.851935 94.031 -57.6281
994.003071 94.154 -56.7050
1001.206027 94.285 -55.8052
1008.461179 94.422 -54.9340
1015.768904 94.566 -54.0965
1023.129584 94.717 -53.2977
1030.543603 94.875 -52.5419
1038.011347 95.039 -51.8323
1045.533205 95.208 -51.1711
1053.109569 95.383 -50.5591
1060.740836 95.561 -49.9962
1068.427401 95.742 -49.4807
1076.169666 95.923 -49.0099
1083.968035 96.103 -48.5801
1091.822915 96.280 -48.1864
1099.734713 96.450 -47.8228
1107.703844 96.613 -47.4826
1115.730723 96.766 -47.1583
1123.815768 96.907 -46.8419
1131.959400 97.035 -46.5252
1140.162045 97.151 -46.2000
1148.424129 97.254 -45.8590
1156.746083 97.345 -45.4965
1165.128342 97.426 -45.1086
1173.571343 97.497 -44.6939
1182.075524 97.561 -44.2534
1190.641331 97.620 -43.7894
1199.269209 97.673 -43.3043
1207.959608 97.722 -42.7985
1216.712981 97.766 -42.2693
1225.529785 97.806 -41.7094
1234.410479 97.841 -41.1076
1243.355526 97.873 -40.4502
1252.365393 97.901 -39.7226
1261.440549 97.928 -38.9122
1270.581467 97.956 -38.0114
1279.788624 97.987 -37.0192
1289.062500 98.025 -35.9433
1298.403578 98.072 -34.7998
1307.812346 98.129 -33.6116
1317.289293 98.199 -32.4065
1326.834914 98.281 -31.2135
1336.449707 98.375 -30.0599
1346.134173 98.478 -28.9692
1355.888816 98.588 -27.9591
1365.714145 98.702 -27.0415
1375.610673 98.818 -26.2228
1385.578915 98.932 -25.5048
1395.619391 99.042 -24.8854
1405.732624 99.146 -24.3600
1415.919142 99.242 -23.9217
1426.179476 99.330 -23.5620
1436.514160 99.407 -23.2714
1446.923734 99.474 -23.0394
1457.408740 99.530 -22.8548
1467.969724 99.576 -22.7059
1478.607238 99.613 -22.5809
1489.321836 99.640 -22.4682
1500.114076 99.659 -22.3574
1510.984521 99.671 -22.2397
1521.933737 99.676 -22.1092
1532.962297 99.677 -21.9633
1544.070773 99.673 -21.8034
1555.259747 99.665 -21.6343
1566.529800 99.652 -21.4631
1577.881521 99.633 -21.2972
1589.315501 99.606 -21.1422
1600.832336 99.568 -20.9990
1612.432627 99.516 -20.8623
1624.116978 99.447 -20.7195
1635.886000 99.359 -20.5513
1647.740304 99.251 -20.3313
1659.680509 99.122 -20.0283
1671.707238 98.973 -19.6073
1683.821118 98.805 -19.0319
1696.022780 98.622 -18.2668
1708.312860 98.429 -17.2812
1720.692000 98.232 -16.0518
1733.160843 98.038 -14.5671
1745.720041 97.852 -12.8301
1758.370248 97.684 -10.8610
1771.112124 97.537 -8.6966
1783.946332 97.416 -6.3880
1796.873543 97.324 -3.9942
1809.894429 97.259 -1.5753
1823.009670 97.220 0.8150
1836.219950 97.204 3.1346
1849.525956 97.205 5.3560
1862.928384 97.219 7.4652
1876.427931 97.243 9.4590
1890.025301 97.272 11.3414
1903.721204 97.304 13.1197
1917.516352 97.336 14.8027
1931.411466 97.366 16.4002
1945.407270 97.390 17.9238
1959.504493 97.406 19.3888
1973.703870 97.411 20.8140
1988.006142 97.404 22.2218
2002.412054 97.382 23.6363
2016.922357 97.346 25.0812
2031.537808 97.296 26.5780
2046.259169 97.234 28.1436
2061.087206 97.160 29.7886
2076.022694 97.077 31.5155
2091.066410 96.988 33.3189
2106.219139 96.896 35.1859
2121.481671 96.803 37.0988
2136.854802 96.710 39.0383
2152.339333 96.618 40.9874
2167.936071 96.528 42.9336
2183.645829 96.441 44.8701
2199.469427 96.356 46.7948
2215.407689 96.274 48.7097
2231.461446 96.194 50.6191
2247.631536 96.118 52.5292
2263.918800 96.044 54.4481
2280.324089 95.973 56.3856
2296.848258 95.906 58.3526
2313.492167 95.843 60.3590
2330.256685 95.784 62.4118
2347.142685 95.732 64.5132
2364.151049 95.689 66.6586
2381.282662 95.654 68.8371
2398.538418 95.631 71.0315
2415.919216 95.619 73.2206
2433.425962 95.618 75.3805
2451.059570 95.627 77.4879
2468.820958 95.645 79.5222
2486.711052 95.670 81.4676
2504.730786 95.699 83.3151
2522.881098 95.728 85.0638
2541.162934 95.755 86.7222
2559.577248 95.776 88.3079
2578.125000 95.791 89.8475
2596.807157 95.797 91.3749
2615.624692 95.794 92.9297
2634.578586 95.785 94.5554
2653.669829 95.773 96.2961
2672.899414 95.761 98.1936
2692.268345 95.757 100.2818
2711.777632 95.766 102.5810
2731.428290 95.794 105.0915
2751.221345 95.849 107.7900
2771.157829 95.932 110.6301
2791.238781 96.045 113.5490
2811.465248 96.185 116.4776
2831.838284 96.347 119.3528
2852.358952 96.525 122.1267
2873.028321 96.711 124.7710
2893.847468 96.900 127.2765
2914.817480 97.085 129.6503
2935.939449 97.263 131.9096
2957.214476 97.429 134.0773
2978.643672 97.584 136.1769
3000.228152 97.725 138.2293
3021.969041 97.854 140.2503
3043.867475 97.970 142.2502
3065.924593 98.076 144.2350
3088.141547 98.171 146.2086
3110.519493 98.257 148.1747
3133.059600 98.334 150.1382
3155.763041 98.404 152.1046
3178.631001 98.468 154.0788
3201.664672 98.528 156.0629
3224.865254 98.585 158.0548
3248.233957 98.642 160.0481
3271.771999 98.698 162.0326
3295.480608 98.756 163.9966
3319.361019 98.815 165.9276
3343.414477 98.875 167.8148
3367.642236 98.934 169.6491
3392.045560 98.993 171.4230
3416.625721 99.050 173.1309
3441.383999 99.104 174.7683
3466.321686 99.153 176.3320
3491.440082 99.197 177.8211
3516.740496 99.232 179.2375
3542.224247 99.257 -179.4123
3567.892664 99.269 -178.1145
3593.747085 99.266 -176.8462
3619.788858 99.245 -175.5725
3646.019340 99.205 -174.2455
3672.439900 99.144 -172.8034
3699.051913 99.065 -171.1735
3725.856768 98.972 -169.2779
3752.855862 98.872 -167.0455
3780.050603 98.775 -164.4288
3807.442408 98.692 -161.4224
3835.032705 98.635 -158.0749
3862.822933 98.611 -154.4847
3890.814540 98.624 -150.7780
3919.008986 98.672 -147.0768
3947.407741 98.750 -143.4717
3976.012284 98.852 -140.0114
4004.824108 98.972 -136.7072
4033.844715 99.105 -133.5488
4063.075616 99.247 -130.5191
4092.518337 99.395 -127.6046
4122.174412 99.547 -124.7982
4152.045387 99.700 -122.0956
4182.132820 99.851 -119.4910
4212.438278 99.999 -116.9742
4242.963342 100.141 -114.5305
4273.709604 100.275 -112.1427
4304.678665 100.401 -109.7950
4335.872141 100.519 -107.4752
4367.291658 100.628 -105.1760
4398.938854 100.729 -102.8931
4430.815378 100.819 -100.6234
4462.922893 100.898 -98.3629
4495.263072 100.966 -96.1056
4527.837601 101.021 -93.8432
4560.648179 101.063 -91.5649
4593.696515 101.090 -89.2579
4626.984334 101.104 -86.9071
4660.513370 101.105 -84.4958
4694.285371 101.093 -82.0054
4728.302098 101.071 -79.4178
4762.565324 101.042 -76.7182
4797.076835 101.009 -73.8982
4831.838432 100.975 -70.9578
4866.851925 100.946 -67.9061
4902.119140 100.923 -64.7583
4937.641916 100.909 -61.5323
4973.422105 100.907 -58.2442
5009.461572 100.917 -54.9055
5045.762195 100.940 -51.5243
5082.325868 100.979 -48.1067
5119.154496 101.032 -44.6598
5156.250000 101.102 -41.1943
5193.614313 101.190 -37.7253
5231.249383 101.293 -34.2697
5269.157173 101.414 -30.8449
5307.339658 101.549 -27.4667
5345.798829 101.699 -24.1491
5384.536691 101.861 -20.9047
5423.555263 102.035 -17.7456
5462.856580 102.220 -14.6836
5502.442691 102.414 -11.7283
5542.315659 102.616 -8.8859
5582.477563 102.824 -6.1578
5622.930497 103.039 -3.5428
5663.676569 103.260 -1.0397
5704.717904 103.488 1.3492
5746.056642 103.723 3.6155
5787.694937 103.964 5.7441
5829.634960 104.210 7.7168
5871.878898 104.459 9.5151
5914.428953 104.707 11.1255
5957.287343 104.950 12.5412
6000.456303 105.183 13.7634
6043.938083 105.404 14.7992
6087.734950 105.607 15.6594
6131.849187 105.788 16.3577
6176.283094 105.945 16.9089
6221.038987 106.073 17.3301
6266.119200 106.171 17.6379
6311.526083 106.235 17.8490
6357.262002 106.263 17.9781
6403.329344 106.254 18.0394
6449.730508 106.205 18.0472
6496.467914 106.113 18.0181
6543.543998 105.978 17.9724
6590.961215 105.796 17.9346
6638.722037 105.568 17.9343
6686.828954 105.290 18.0065
6735.284473 104.964 18.1913
6784.091120 104.589 18.5347
6833.251441 104.166 19.0858
6882.767998 103.699 19.8943
6932.643372 103.191 21.0060
6982.880164 102.646 22.4614
7033.480992 102.070 24.2980
7084.448495 101.468 26.5560
7135.785329 100.847 29.2843
7187.494171 100.213 32.5460
7239.577717 99.574 36.4224
7292.038681 98.939 41.0172
7344.879799 98.320 46.4580
7398.103826 97.730 52.8899
7451.713536 97.184 60.4481
7505.711724 96.700 69.1954
7560.101205 96.293 79.0212
7614.884815 95.977 89.5511
7670.065409 95.759 100.1636
7725.645865 95.636 110.1687
7781.629080 95.600 119.0416
7838.017972 95.631 126.5375
7894.815481 95.707 132.6500
7952.024569 95.806 137.5082
8009.648217 95.905 141.2891
8067.689429 95.983 144.1733
8126.151233 96.022 146.3293
8185.036674 96.010 147.9115
8244.348824 95.935 149.0622
8304.090774 95.793 149.9169
8364.265639 95.580 150.6109
8424.876556 95.299 151.2902
8485.926684 94.959 152.1289
8547.419207 94.575 153.3635
8609.357330 94.174 155.3701
8671.744282 93.790 158.8762
8734.583316 93.470 165.6641
8797.877707 93.266 -178.4739
8861.630756 93.222 -134.5460
8925.845785 93.361 -82.5140
8990.526143 93.679 -62.1289
9055.675202 94.149 -53.4026
9121.296357 94.729 -48.5109
9187.393031 95.377 -45.2325
9253.968668 96.060 -42.7628
9321.026740 96.753 -40.7614
9388.570742 97.439 -39.0810
9456.604196 98.107 -37.6702
9525.130648 98.747 -36.5279
9594.153671 99.352 -35.6765
9663.676863 99.915 -35.1444
9733.703850 100.428 -34.9537
9804.238280 100.882 -35.1128
9875.283832 101.269 -35.6130
9946.844210 101.583 -36.4260
10018.923143 101.815 -37.5043
10091.524390 101.961 -38.7838
10164.651736 102.019 -40.1892
10238.308993 101.989 -41.6425
10312.500000 101.873 -43.0699
10387.228626 101.676 -44.4047
10462.498767 101.402 -45.5845
10538.314345 101.057 -46.5500
10614.679315 100.644 -47.2440
10691.597657 100.170 -47.6125
10769.073381 99.640 -47.6058
10847.110526 99.060 -47.1790
10925.713161 98.437 -46.2936
11004.885382 97.777 -44.9167
11084.631318 97.085 -43.0221
11164.955126 96.368 -40.5894
11245.860993 95.632 -37.6046
11327.353138 94.880 -34.0594
11409.435808 94.120 -29.9519
11492.113283 93.356 -25.2846
11575.389873 92.594 -20.0629
11659.269920 91.841 -14.2924
11743.757796 91.104 -7.9822
11828.857906 90.394 -1.1559
11914.574686 89.723 6.1260
12000.912606 89.109 13.7344
12087.876166 88.572 21.4441
12175.469900 88.132 28.9376
12263.698373 87.809 35.8514
12352.566187 87.616 41.8544
12442.077974 87.555 46.7139
12532.238400 87.618 50.3204
12623.052165 87.788 52.6704
12714.524005 88.042 53.8315
12806.658687 88.357 53.9094
12899.461015 88.712 53.0270
12992.935827 89.092 51.3135
13087.087996 89.482 48.8997
13181.922430 89.872 45.9170
13277.444074 90.254 42.4955
13373.657907 90.622 38.7620
13470.568945 90.969 34.8374
13568.182241 91.289 30.8339
13666.502883 91.577 26.8526
13765.535996 91.827 22.9843
13865.286744 92.035 19.3104
13965.760328 92.195 15.9061
14066.961984 92.307 12.8436
14168.896989 92.370 10.1935
14271.570658 92.388 8.0263
14374.988342 92.366 6.4109
14479.155433 92.315 5.4122
14584.077362 92.248 5.0869
14689.759598 92.181 5.4764
14796.207652 92.133 6.5975
14903.427072 92.122 8.4291
15011.423448 92.168 10.8973
15120.202410 92.282 13.8640
15229.769630 92.470 17.1262
15340.130819 92.732 20.4354
15451.291730 93.056 23.5343
15563.258160 93.427 26.2000
15676.035944 93.823 28.2756
15789.630962 94.222 29.6830
15904.049137 94.605 30.4152
16019.296433 94.954 30.5197
16135.378859 95.257 30.0790
16252.302465 95.504 29.1934
16370.073348 95.692 27.9663
16488.697648 95.823 26.4967
16608.181548 95.899 24.8754
16728.531278 95.928 23.1840
16849.753112 95.922 21.4963
16971.853368 95.898 19.8788
17094.838414 95.876 18.3915
17218.714660 95.881 17.0854
17343.488565 95.941 15.9991
17469.166632 96.084 15.1472
17595.755415 96.330 14.5046
17723.261512 96.688 13.9832
17851.691571 97.155 13.4134
17981.052287 97.711 12.5416
18111.350404 98.325 11.0582
18242.592715 98.965 8.6483
18374.786062 99.599 5.0427
18507.937336 100.202 0.0453
18642.053479 100.754 -6.4702
18777.141484 101.239 -14.5777
18913.208391 101.650 -24.3029
19050.261296 101.984 -35.5835
19188.307342 102.241 -48.1666
19327.353727 102.427 -61.4730
19467.407699 102.551 -74.5554
19608.476560 102.626 -86.2938
19750.567664 102.665 -95.7244
19893.688419 102.682 -102.2378
20037.846286 102.687 -105.5442
