* Measurement data measured by REW V5.31.3
* Source: EXCL: Headset (USB-C to 3.5mm Headphone Jack Adapter), MICROPHONE (Master Volume), 0, volume: 0.260
* Format: 256k Log Swept Sine, 1 sweep at -12.0 dBFS with no timing reference
* Dated: Feb 10, 2025 1:44:19 PM
* REW Settings:
*  C-weighting compensation: Off
*  Target level: 75.0 dB
* Note: ; 
* Measurement: Maxwell L6
* Smoothing: 1/6 octave
* Frequency Step: 96 ppo
* Start Frequency: 20.0 Hz
*
* Freq(Hz) SPL(dB) Phase(degrees)
20.141602 98.326 26.3273
20.287556 98.375 25.8542
20.434568 98.438 25.2213
20.582645 98.511 24.4446
20.731796 98.590 23.5421
20.882027 98.669 22.5318
21.033346 98.745 21.4313
21.185763 98.816 20.2571
21.339284 98.879 19.0244
21.493917 98.935 17.7467
21.649671 98.983 16.4360
21.806553 99.024 15.1027
21.964572 99.058 13.7553
22.123737 99.089 12.4008
22.284054 99.117 11.0440
22.445534 99.146 9.6880
22.608183 99.177 8.3343
22.772012 99.212 6.9825
22.937027 99.253 5.6309
23.103238 99.302 4.2768
23.270654 99.360 2.9168
23.439282 99.426 1.5479
23.609133 99.502 0.1672
23.780215 99.586 -1.2273
23.952536 99.678 -2.6362
24.126106 99.778 -4.0590
24.300934 99.883 -5.4937
24.477028 99.993 -6.9373
24.654399 100.106 -8.3863
24.833055 100.222 -9.8366
25.013005 100.338 -11.2845
25.194260 100.454 -12.7269
25.376828 100.568 -14.1616
25.560719 100.681 -15.5879
25.745942 100.791 -17.0061
25.932508 100.899 -18.4179
26.120426 101.002 -19.8258
26.309705 101.102 -21.2328
26.500356 101.197 -22.6419
26.692388 101.286 -24.0558
26.885812 101.370 -25.4761
27.080638 101.447 -26.9033
27.276876 101.518 -28.3365
27.474535 101.582 -29.7735
27.673627 101.641 -31.2111
27.874161 101.695 -32.6454
28.076149 101.747 -34.0720
28.279600 101.799 -35.4870
28.484526 101.855 -36.8872
28.690937 101.917 -38.2705
28.898843 101.990 -39.6365
29.108256 102.077 -40.9864
29.319186 102.179 -42.3233
29.531645 102.299 -43.6518
29.745644 102.436 -44.9775
29.961193 102.588 -46.3067
30.178304 102.751 -47.6454
30.396989 102.922 -48.9987
30.617258 103.095 -50.3703
30.839123 103.263 -51.7618
31.062596 103.421 -53.1726
31.287688 103.563 -54.6002
31.514412 103.684 -56.0398
31.742778 103.779 -57.4855
31.972800 103.845 -58.9303
32.204488 103.879 -60.3670
32.437855 103.880 -61.7883
32.672913 103.847 -63.1878
32.909674 103.782 -64.5597
33.148151 103.684 -65.8991
33.388356 103.557 -67.2022
33.630302 103.404 -68.4662
33.874001 103.228 -69.6889
34.119466 103.033 -70.8692
34.366710 102.825 -72.0065
34.615745 102.607 -73.1011
34.866585 102.384 -74.1540
35.119243 102.162 -75.1670
35.373731 101.946 -76.1425
35.630064 101.740 -77.0832
35.888254 101.549 -77.9924
36.148315 101.376 -78.8730
36.410261 101.225 -79.7279
36.674104 101.100 -80.5595
36.939860 101.001 -81.3699
37.207542 100.931 -82.1607
37.477163 100.892 -82.9335
37.748738 100.882 -83.6902
38.022281 100.903 -84.4326
38.297806 100.953 -85.1632
38.575327 101.033 -85.8850
38.854860 101.139 -86.6011
39.136419 101.271 -87.3151
39.420017 101.427 -88.0307
39.705671 101.604 -88.7520
39.993395 101.802 -89.4830
40.283203 102.017 -90.2281
40.575112 102.250 -90.9921
40.869136 102.497 -91.7799
41.165290 102.756 -92.5965
41.463591 103.027 -93.4467
41.764053 103.305 -94.3348
42.066693 103.589 -95.2647
42.371525 103.876 -96.2391
42.678567 104.162 -97.2600
42.987834 104.444 -98.3280
43.299341 104.719 -99.4433
43.613106 104.984 -100.6050
43.929145 105.236 -101.8114
44.247473 105.473 -103.0606
44.568109 105.691 -104.3497
44.891068 105.890 -105.6750
45.216367 106.067 -107.0320
45.544023 106.221 -108.4149
45.874054 106.351 -109.8167
46.206476 106.457 -111.2294
46.541307 106.538 -112.6443
46.878565 106.596 -114.0531
47.218266 106.630 -115.4484
47.560429 106.642 -116.8244
47.905072 106.634 -118.1776
48.252212 106.607 -119.5066
48.601867 106.562 -120.8119
48.954056 106.502 -122.0952
49.308798 106.429 -123.3586
49.666109 106.344 -124.6039
50.026010 106.248 -125.8320
50.388520 106.144 -127.0430
50.753656 106.033 -128.2358
51.121437 105.917 -129.4086
51.491884 105.796 -130.5590
51.865016 105.672 -131.6844
52.240851 105.546 -132.7825
52.619410 105.420 -133.8512
53.000712 105.292 -134.8891
53.384777 105.165 -135.8950
53.771625 105.037 -136.8684
54.161276 104.909 -137.8086
54.553751 104.781 -138.7149
54.949070 104.651 -139.5865
55.347254 104.520 -140.4222
55.748323 104.386 -141.2208
56.152298 104.250 -141.9806
56.559201 104.111 -142.7001
56.969052 103.968 -143.3778
57.381873 103.823 -144.0124
57.797686 103.676 -144.6035
58.216512 103.526 -145.1519
58.638373 103.377 -145.6592
59.063291 103.227 -146.1279
59.491288 103.077 -146.5610
59.922386 102.929 -146.9615
60.356608 102.783 -147.3328
60.793977 102.640 -147.6782
61.234515 102.500 -148.0010
61.678246 102.363 -148.3046
62.125192 102.230 -148.5921
62.575377 102.101 -148.8662
63.028824 101.977 -149.1288
63.485557 101.858 -149.3816
63.945599 101.745 -149.6259
64.408975 101.637 -149.8627
64.875709 101.535 -150.0930
65.345825 101.439 -150.3178
65.819348 101.348 -150.5382
66.296302 101.263 -150.7551
66.776713 101.184 -150.9694
67.260604 101.110 -151.1819
67.748002 101.042 -151.3931
68.238932 100.979 -151.6033
68.733420 100.921 -151.8129
69.231490 100.867 -152.0223
69.733170 100.819 -152.2319
70.238485 100.774 -152.4423
70.747463 100.733 -152.6544
71.260128 100.696 -152.8692
71.776508 100.661 -153.0878
72.296630 100.630 -153.3111
72.820521 100.602 -153.5396
73.348209 100.576 -153.7738
73.879720 100.553 -154.0137
74.415083 100.531 -154.2590
74.954326 100.511 -154.5093
75.497475 100.492 -154.7644
76.044561 100.473 -155.0237
76.595612 100.454 -155.2871
77.150655 100.435 -155.5545
77.709720 100.415 -155.8261
78.272837 100.394 -156.1025
78.840034 100.371 -156.3843
79.411342 100.345 -156.6726
79.986789 100.317 -156.9680
80.566406 100.286 -157.2711
81.150224 100.251 -157.5822
81.738272 100.213 -157.9011
82.330581 100.171 -158.2272
82.927182 100.128 -158.5598
83.528107 100.082 -158.8979
84.133386 100.037 -159.2404
84.743051 99.994 -159.5861
85.357134 99.955 -159.9339
85.975667 99.924 -160.2828
86.598682 99.904 -160.6317
87.226212 99.898 -160.9799
87.858289 99.909 -161.3266
88.494946 99.940 -161.6708
89.136217 99.994 -162.0118
89.782135 100.070 -162.3485
90.432733 100.169 -162.6797
91.088046 100.288 -163.0041
91.748108 100.424 -163.3205
92.412952 100.573 -163.6278
93.082615 100.730 -163.9250
93.757130 100.889 -164.2113
94.436533 101.046 -164.4861
95.120859 101.195 -164.7491
95.810144 101.332 -165.0001
96.504423 101.455 -165.2395
97.203734 101.562 -165.4674
97.908112 101.651 -165.6844
98.617595 101.723 -165.8906
99.332219 101.779 -166.0863
100.052021 101.819 -166.2718
100.777039 101.847 -166.4470
101.507311 101.865 -166.6118
102.242875 101.873 -166.7659
102.983769 101.876 -166.9090
103.730032 101.873 -167.0407
104.481702 101.866 -167.1606
105.238820 101.854 -167.2688
106.001424 101.837 -167.3657
106.769554 101.815 -167.4520
107.543250 101.786 -167.5288
108.322553 101.748 -167.5972
109.107503 101.700 -167.6587
109.898141 101.641 -167.7145
110.694508 101.570 -167.7661
111.496646 101.487 -167.8149
112.304596 101.393 -167.8624
113.118402 101.289 -167.9099
113.938104 101.176 -167.9588
114.763747 101.055 -168.0102
115.595372 100.930 -168.0651
116.433024 100.802 -168.1241
117.276746 100.673 -168.1877
118.126581 100.545 -168.2567
118.982575 100.419 -168.3314
119.844772 100.296 -168.4122
120.713217 100.177 -168.4996
121.587954 100.062 -168.5934
122.469031 99.949 -168.6934
123.356492 99.839 -168.7995
124.250384 99.729 -168.9114
125.150753 99.619 -169.0293
126.057647 99.506 -169.1536
126.971113 99.389 -169.2847
127.891198 99.267 -169.4231
128.817950 99.139 -169.5695
129.751418 99.004 -169.7242
130.691651 98.861 -169.8872
131.638696 98.713 -170.0584
132.592604 98.558 -170.2373
133.553425 98.401 -170.4231
134.521208 98.242 -170.6152
135.496004 98.084 -170.8127
136.477864 97.931 -171.0149
137.466839 97.787 -171.2209
138.462981 97.653 -171.4298
139.466340 97.533 -171.6404
140.476971 97.429 -171.8512
141.494925 97.340 -172.0604
142.520256 97.268 -172.2659
143.553016 97.210 -172.4651
144.593260 97.163 -172.6554
145.641043 97.125 -172.8342
146.696418 97.090 -172.9989
147.759441 97.057 -173.1473
148.830166 97.020 -173.2774
149.908651 96.978 -173.3873
150.994951 96.928 -173.4756
152.089123 96.869 -173.5406
153.191223 96.801 -173.5809
154.301310 96.725 -173.5948
155.419441 96.641 -173.5803
156.545674 96.553 -173.5358
157.680069 96.462 -173.4596
158.822683 96.369 -173.3503
159.973578 96.277 -173.2071
161.132813 96.187 -173.0295
162.300447 96.101 -172.8177
163.476543 96.019 -172.5721
164.661162 95.942 -172.2939
165.854364 95.871 -171.9845
167.056213 95.805 -171.6459
168.266772 95.747 -171.2803
169.486102 95.696 -170.8902
170.714268 95.653 -170.4782
171.951334 95.620 -170.0469
173.197364 95.595 -169.5992
174.452424 95.580 -169.1378
175.716578 95.574 -168.6655
176.989893 95.576 -168.1850
178.272434 95.587 -167.6993
179.564270 95.604 -167.2112
180.865467 95.626 -166.7234
182.176092 95.653 -166.2386
183.496216 95.682 -165.7594
184.825905 95.712 -165.2881
186.165229 95.744 -164.8269
187.514259 95.776 -164.3776
188.873065 95.809 -163.9420
190.241717 95.842 -163.5217
191.620287 95.877 -163.1178
193.008847 95.912 -162.7314
194.407468 95.948 -162.3630
195.816225 95.986 -162.0130
197.235190 96.024 -161.6812
198.664438 96.063 -161.3671
200.104042 96.102 -161.0698
201.554078 96.141 -160.7883
203.014622 96.178 -160.5212
204.485750 96.212 -160.2673
205.967538 96.244 -160.0251
207.460064 96.272 -159.7938
208.963405 96.296 -159.5720
210.477640 96.317 -159.3589
212.002848 96.333 -159.1533
213.539108 96.346 -158.9541
215.086500 96.356 -158.7598
216.645105 96.363 -158.5692
218.215005 96.367 -158.3806
219.796281 96.368 -158.1929
221.389015 96.366 -158.0050
222.993292 96.361 -157.8161
224.609193 96.352 -157.6255
226.236804 96.339 -157.4328
227.876209 96.322 -157.2376
229.527494 96.299 -157.0397
231.190745 96.271 -156.8381
232.866048 96.238 -156.6320
234.553491 96.199 -156.4200
236.253163 96.157 -156.2006
237.965150 96.111 -155.9722
239.689544 96.063 -155.7338
241.426433 96.013 -155.4849
243.175909 95.963 -155.2255
244.938062 95.914 -154.9564
246.712984 95.868 -154.6788
248.500768 95.824 -154.3938
250.301507 95.785 -154.1029
252.115295 95.751 -153.8071
253.942226 95.723 -153.5076
255.782396 95.702 -153.2056
257.635901 95.689 -152.9025
259.502837 95.684 -152.6000
261.383301 95.688 -152.2998
263.277392 95.701 -152.0038
265.185209 95.725 -151.7139
267.106850 95.758 -151.4317
269.042417 95.800 -151.1586
270.992009 95.852 -150.8963
272.955729 95.912 -150.6467
274.933678 95.979 -150.4118
276.925961 96.053 -150.1939
278.932681 96.132 -149.9956
280.953942 96.217 -149.8192
282.989850 96.306 -149.6669
285.040511 96.399 -149.5406
287.106032 96.497 -149.4420
289.186521 96.599 -149.3724
291.282086 96.707 -149.3327
293.392836 96.819 -149.3232
295.518881 96.937 -149.3437
297.660333 97.060 -149.3933
299.817302 97.187 -149.4708
301.989902 97.317 -149.5749
304.178245 97.447 -149.7044
306.382446 97.576 -149.8578
308.602620 97.701 -150.0336
310.838882 97.821 -150.2300
313.091348 97.933 -150.4446
315.360137 98.035 -150.6745
317.645367 98.126 -150.9161
319.947156 98.205 -151.1658
322.265625 98.271 -151.4197
324.600895 98.322 -151.6741
326.953086 98.360 -151.9253
329.322323 98.382 -152.1695
331.708729 98.390 -152.4025
334.112427 98.383 -152.6202
336.533543 98.362 -152.8182
338.972204 98.328 -152.9927
341.428536 98.282 -153.1404
343.902668 98.226 -153.2589
346.394729 98.161 -153.3469
348.904848 98.090 -153.4039
351.433156 98.016 -153.4306
353.979786 97.941 -153.4285
356.544869 97.869 -153.4000
359.128540 97.802 -153.3480
361.730934 97.746 -153.2757
364.352185 97.702 -153.1866
366.992431 97.673 -153.0840
369.651810 97.664 -152.9712
372.330459 97.674 -152.8511
375.028519 97.706 -152.7266
377.746130 97.759 -152.6000
380.483434 97.832 -152.4735
383.240574 97.924 -152.3491
386.017693 98.033 -152.2284
388.814937 98.154 -152.1131
391.632450 98.285 -152.0045
394.470380 98.424 -151.9040
397.328875 98.566 -151.8127
400.208084 98.711 -151.7319
403.108157 98.855 -151.6627
406.029245 98.998 -151.6063
408.971500 99.139 -151.5636
411.935076 99.278 -151.5356
414.920127 99.414 -151.5231
417.926810 99.548 -151.5264
420.955280 99.680 -151.5458
424.005695 99.812 -151.5813
427.078215 99.944 -151.6325
430.173000 100.075 -151.6993
433.290211 100.207 -151.7810
436.430010 100.338 -151.8771
439.592562 100.469 -151.9870
442.778031 100.597 -152.1102
445.986583 100.721 -152.2464
449.218386 100.840 -152.3951
452.473607 100.952 -152.5562
455.752418 101.056 -152.7297
459.054987 101.150 -152.9156
462.381489 101.233 -153.1139
465.732096 101.304 -153.3245
469.106983 101.364 -153.5471
472.506325 101.412 -153.7818
475.930301 101.450 -154.0280
479.379088 101.477 -154.2857
482.852867 101.496 -154.5546
486.351817 101.506 -154.8344
489.876123 101.509 -155.1248
493.425968 101.506 -155.4257
497.001536 101.497 -155.7367
500.603014 101.484 -156.0577
504.230589 101.465 -156.3884
507.884452 101.441 -156.7287
511.564792 101.412 -157.0787
515.271802 101.379 -157.4382
519.005673 101.341 -157.8070
522.766602 101.299 -158.1850
526.554785 101.255 -158.5718
530.370418 101.209 -158.9668
534.213700 101.162 -159.3691
538.084833 101.118 -159.7778
541.984018 101.076 -160.1914
545.911457 101.039 -160.6083
549.867357 101.007 -161.0265
553.851922 100.979 -161.4435
557.865362 100.956 -161.8566
561.907884 100.935 -162.2627
565.979700 100.916 -162.6587
570.081022 100.897 -163.0413
574.212064 100.875 -163.4071
578.373042 100.850 -163.7531
582.564171 100.819 -164.0768
586.785671 100.782 -164.3758
591.037762 100.737 -164.6489
595.320665 100.685 -164.8953
599.634604 100.624 -165.1154
603.979804 100.556 -165.3103
608.356491 100.481 -165.4820
612.764893 100.399 -165.6333
617.205240 100.312 -165.7675
621.677763 100.220 -165.8886
626.182696 100.126 -166.0004
630.720274 100.030 -166.1067
635.290733 99.934 -166.2111
639.894312 99.840 -166.3163
644.531250 99.750 -166.4244
649.201789 99.663 -166.5365
653.906173 99.582 -166.6528
658.644647 99.506 -166.7729
663.417457 99.435 -166.8953
668.224854 99.367 -167.0179
673.067086 99.303 -167.1379
677.944408 99.239 -167.2516
682.857073 99.174 -167.3544
687.805336 99.106 -167.4416
692.789457 99.034 -167.5075
697.809695 98.956 -167.5464
702.866312 98.870 -167.5522
707.959571 98.777 -167.5190
713.089738 98.676 -167.4409
718.257080 98.568 -167.3125
723.461867 98.452 -167.1290
728.704370 98.330 -166.8862
733.984862 98.204 -166.5809
739.303619 98.075 -166.2112
744.660918 97.945 -165.7760
750.057038 97.816 -165.2761
755.492260 97.690 -164.7137
760.966869 97.568 -164.0925
766.481148 97.452 -163.4184
772.035387 97.342 -162.6988
777.629873 97.240 -161.9427
783.264900 97.145 -161.1603
788.940760 97.057 -160.3627
794.657750 96.974 -159.5609
800.416168 96.897 -158.7654
806.216313 96.823 -157.9857
812.058489 96.751 -157.2300
817.943000 96.679 -156.5042
823.870152 96.608 -155.8127
829.840255 96.536 -155.1577
835.853619 96.463 -154.5395
841.910559 96.388 -153.9568
848.011390 96.311 -153.4066
854.156430 96.232 -152.8845
860.346000 96.153 -152.3849
866.580422 96.072 -151.9007
872.860020 95.992 -151.4243
879.185124 95.914 -150.9479
885.556062 95.838 -150.4641
891.973166 95.768 -149.9665
898.436771 95.704 -149.4513
904.947215 95.649 -148.9169
911.504835 95.607 -148.3648
918.109975 95.578 -147.7992
924.762978 95.564 -147.2269
931.464192 95.567 -146.6560
938.213966 95.587 -146.0959
945.012651 95.623 -145.5558
951.860602 95.676 -145.0442
958.758176 95.743 -144.5686
965.705733 95.823 -144.1344
972.703635 95.914 -143.7455
979.752246 96.013 -143.4041
986.851935 96.120 -143.1108
994.003071 96.233 -142.8655
1001.206027 96.350 -142.6671
1008.461179 96.471 -142.5141
1015.768904 96.596 -142.4052
1023.129584 96.724 -142.3390
1030.543603 96.856 -142.3144
1038.011347 96.991 -142.3304
1045.533205 97.130 -142.3861
1053.109569 97.272 -142.4806
1060.740836 97.416 -142.6129
1068.427401 97.561 -142.7815
1076.169666 97.707 -142.9846
1083.968035 97.850 -143.2195
1091.822915 97.989 -143.4831
1099.734713 98.121 -143.7708
1107.703844 98.244 -144.0770
1115.730723 98.354 -144.3938
1123.815768 98.451 -144.7115
1131.959400 98.531 -145.0178
1140.162045 98.595 -145.2977
1148.424129 98.641 -145.5342
1156.746083 98.672 -145.7087
1165.128342 98.688 -145.8025
1173.571343 98.693 -145.7982
1182.075524 98.692 -145.6821
1190.641331 98.689 -145.4459
1199.269209 98.689 -145.0885
1207.959608 98.699 -144.6174
1216.712981 98.721 -144.0486
1225.529785 98.759 -143.4053
1234.410479 98.814 -142.7153
1243.355526 98.887 -142.0082
1252.365393 98.975 -141.3118
1261.440549 99.077 -140.6499
1270.581467 99.190 -140.0411
1279.788624 99.311 -139.4979
1289.062500 99.436 -139.0278
1298.403578 99.565 -138.6335
1307.812346 99.694 -138.3149
1317.289293 99.823 -138.0698
1326.834914 99.951 -137.8953
1336.449707 100.077 -137.7884
1346.134173 100.199 -137.7460
1355.888816 100.318 -137.7657
1365.714145 100.433 -137.8451
1375.610673 100.542 -137.9819
1385.578915 100.644 -138.1735
1395.619391 100.739 -138.4169
1405.732624 100.825 -138.7077
1415.919142 100.902 -139.0407
1426.179476 100.969 -139.4093
1436.514160 101.027 -139.8056
1446.923734 101.075 -140.2211
1457.408740 101.115 -140.6466
1467.969724 101.148 -141.0737
1478.607238 101.175 -141.4946
1489.321836 101.197 -141.9036
1500.114076 101.216 -142.2979
1510.984521 101.232 -142.6770
1521.933737 101.247 -143.0433
1532.962297 101.261 -143.4002
1544.070773 101.272 -143.7507
1555.259747 101.279 -144.0958
1566.529800 101.282 -144.4335
1577.881521 101.279 -144.7585
1589.315501 101.269 -145.0629
1600.832336 101.251 -145.3367
1612.432627 101.226 -145.5690
1624.116978 101.194 -145.7494
1635.886000 101.157 -145.8696
1647.740304 101.116 -145.9239
1659.680509 101.075 -145.9103
1671.707238 101.034 -145.8300
1683.821118 100.997 -145.6868
1696.022780 100.963 -145.4866
1708.312860 100.936 -145.2356
1720.692000 100.916 -144.9407
1733.160843 100.903 -144.6088
1745.720041 100.899 -144.2473
1758.370248 100.903 -143.8647
1771.112124 100.917 -143.4714
1783.946332 100.938 -143.0802
1796.873543 100.967 -142.7056
1809.894429 101.002 -142.3622
1823.009670 101.040 -142.0631
1836.219950 101.079 -141.8170
1849.525956 101.116 -141.6277
1862.928384 101.149 -141.4930
1876.427931 101.176 -141.4055
1890.025301 101.194 -141.3539
1903.721204 101.204 -141.3245
1917.516352 101.205 -141.3023
1931.411466 101.196 -141.2728
1945.407270 101.180 -141.2223
1959.504493 101.155 -141.1390
1973.703870 101.123 -141.0129
1988.006142 101.084 -140.8365
2002.412054 101.040 -140.6052
2016.922357 100.991 -140.3180
2031.537808 100.938 -139.9771
2046.259169 100.881 -139.5879
2061.087206 100.822 -139.1582
2076.022694 100.761 -138.6968
2091.066410 100.698 -138.2125
2106.219139 100.633 -137.7134
2121.481671 100.568 -137.2074
2136.854802 100.503 -136.7018
2152.339333 100.440 -136.2044
2167.936071 100.379 -135.7229
2183.645829 100.321 -135.2645
2199.469427 100.267 -134.8352
2215.407689 100.218 -134.4390
2231.461446 100.173 -134.0776
2247.631536 100.133 -133.7508
2263.918800 100.096 -133.4571
2280.324089 100.063 -133.1947
2296.848258 100.034 -132.9620
2313.492167 100.007 -132.7581
2330.256685 99.984 -132.5837
2347.142685 99.962 -132.4404
2364.151049 99.941 -132.3309
2381.282662 99.921 -132.2584
2398.538418 99.898 -132.2250
2415.919216 99.872 -132.2303
2433.425962 99.840 -132.2695
2451.059570 99.800 -132.3324
2468.820958 99.749 -132.4020
2486.711052 99.687 -132.4545
2504.730786 99.612 -132.4592
2522.881098 99.525 -132.3792
2541.162934 99.428 -132.1733
2559.577248 99.325 -131.7995
2578.125000 99.224 -131.2197
2596.807157 99.132 -130.4074
2615.624692 99.060 -129.3549
2634.578586 99.020 -128.0805
2653.669829 99.021 -126.6302
2672.899414 99.068 -125.0735
2692.268345 99.165 -123.4927
2711.777632 99.309 -121.9682
2731.428290 99.493 -120.5655
2751.221345 99.709 -119.3278
2771.157829 99.949 -118.2749
2791.238781 100.204 -117.4076
2811.465248 100.467 -116.7146
2831.838284 100.732 -116.1782
2852.358952 100.995 -115.7800
2873.028321 101.252 -115.5036
2893.847468 101.500 -115.3354
2914.817480 101.736 -115.2638
2935.939449 101.960 -115.2780
2957.214476 102.168 -115.3668
2978.643672 102.360 -115.5179
3000.228152 102.534 -115.7178
3021.969041 102.693 -115.9533
3043.867475 102.836 -116.2116
3065.924593 102.966 -116.4827
3088.141547 103.085 -116.7603
3110.519493 103.196 -117.0434
3133.059600 103.301 -117.3363
3155.763041 103.404 -117.6486
3178.631001 103.505 -117.9934
3201.664672 103.606 -118.3851
3224.865254 103.707 -118.8377
3248.233957 103.807 -119.3631
3271.771999 103.904 -119.9706
3295.480608 103.998 -120.6673
3319.361019 104.086 -121.4576
3343.414477 104.166 -122.3438
3367.642236 104.235 -123.3249
3392.045560 104.290 -124.3958
3416.625721 104.326 -125.5454
3441.383999 104.341 -126.7550
3466.321686 104.329 -127.9963
3491.440082 104.289 -129.2308
3516.740496 104.218 -130.4095
3542.224247 104.115 -131.4732
3567.892664 103.983 -132.3561
3593.747085 103.827 -132.9908
3619.788858 103.656 -133.3181
3646.019340 103.482 -133.2991
3672.439900 103.320 -132.9284
3699.051913 103.185 -132.2423
3725.856768 103.091 -131.3159
3752.855862 103.045 -130.2477
3780.050603 103.051 -129.1378
3807.442408 103.106 -128.0688
3835.032705 103.207 -127.0983
3862.822933 103.347 -126.2618
3890.814540 103.519 -125.5824
3919.008986 103.718 -125.0779
3947.407741 103.938 -124.7627
3976.012284 104.170 -124.6455
4004.824108 104.410 -124.7268
4033.844715 104.651 -124.9991
4063.075616 104.889 -125.4505
4092.518337 105.120 -126.0686
4122.174412 105.342 -126.8431
4152.045387 105.552 -127.7661
4182.132820 105.746 -128.8296
4212.438278 105.921 -130.0220
4242.963342 106.074 -131.3263
4273.709604 106.203 -132.7201
4304.678665 106.307 -134.1788
4335.872141 106.386 -135.6789
4367.291658 106.441 -137.2007
4398.938854 106.473 -138.7281
4430.815378 106.481 -140.2471
4462.922893 106.466 -141.7440
4495.263072 106.427 -143.2041
4527.837601 106.366 -144.6122
4560.648179 106.284 -145.9544
4593.696515 106.181 -147.2197
4626.984334 106.061 -148.4014
4660.513370 105.926 -149.4969
4694.285371 105.778 -150.5066
4728.302098 105.618 -151.4322
4762.565324 105.449 -152.2757
4797.076835 105.272 -153.0377
4831.838432 105.090 -153.7181
4866.851925 104.903 -154.3159
4902.119140 104.714 -154.8306
4937.641916 104.525 -155.2618
4973.422105 104.339 -155.6098
5009.461572 104.158 -155.8759
5045.762195 103.985 -156.0629
5082.325868 103.822 -156.1760
5119.154496 103.673 -156.2242
5156.250000 103.540 -156.2210
5193.614313 103.425 -156.1834
5231.249383 103.329 -156.1311
5269.157173 103.254 -156.0838
5307.339658 103.198 -156.0607
5345.798829 103.162 -156.0798
5384.536691 103.145 -156.1587
5423.555263 103.146 -156.3146
5462.856580 103.164 -156.5650
5502.442691 103.196 -156.9270
5542.315659 103.241 -157.4176
5582.477563 103.298 -158.0532
5622.930497 103.363 -158.8493
5663.676569 103.433 -159.8202
5704.717904 103.504 -160.9773
5746.056642 103.571 -162.3275
5787.694937 103.629 -163.8704
5829.634960 103.673 -165.5984
5871.878898 103.696 -167.4964
5914.428953 103.693 -169.5428
5957.287343 103.660 -171.7111
6000.456303 103.593 -173.9698
6043.938083 103.487 -176.2832
6087.734950 103.340 -178.6118
6131.849187 103.148 179.0874
6176.283094 102.910 176.8603
6221.038987 102.624 174.7555
6266.119200 102.291 172.8238
6311.526083 101.911 171.1174
6357.262002 101.486 169.6899
6403.329344 101.019 168.5961
6449.730508 100.514 167.8911
6496.467914 99.975 167.6303
6543.543998 99.409 167.8670
6590.961215 98.825 168.6504
6638.722037 98.231 170.0217
6686.828954 97.641 172.0073
6735.284473 97.067 174.6099
6784.091120 96.525 177.8005
6833.251441 96.032 -178.4853
6882.767998 95.604 -174.3467
6932.643372 95.256 -169.9101
6982.880164 95.000 -165.3179
7033.480992 94.844 -160.7137
7084.448495 94.790 -156.2280
7135.785329 94.836 -151.9699
7187.494171 94.975 -148.0236
7239.577717 95.196 -144.4480
7292.038681 95.485 -141.2797
7344.879799 95.830 -138.5366
7398.103826 96.216 -136.2233
7451.713536 96.633 -134.3370
7505.711724 97.068 -132.8711
7560.101205 97.512 -131.8180
7614.884815 97.954 -131.1686
7670.065409 98.385 -130.9115
7725.645865 98.795 -131.0302
7781.629080 99.175 -131.4989
7838.017972 99.515 -132.2780
7894.815481 99.806 -133.3082
7952.024569 100.042 -134.5061
8009.648217 100.216 -135.7607
8067.689429 100.326 -136.9324
8126.151233 100.378 -137.8575
8185.036674 100.382 -138.3603
8244.348824 100.355 -138.2816
8304.090774 100.325 -137.5244
8364.265639 100.321 -136.1105
8424.876556 100.372 -134.2194
8485.926684 100.497 -132.1724
8547.419207 100.700 -130.3462
8609.357330 100.971 -129.0592
8671.744282 101.288 -128.4961
8734.583316 101.627 -128.6994
8797.877707 101.962 -129.6073
8861.630756 102.275 -131.1001
8925.845785 102.555 -133.0374
8990.526143 102.795 -135.2811
9055.675202 102.995 -137.7094
9121.296357 103.161 -140.2228
9187.393031 103.298 -142.7482
9253.968668 103.415 -145.2379
9321.026740 103.519 -147.6683
9388.570742 103.618 -150.0358
9456.604196 103.716 -152.3519
9525.130648 103.814 -154.6384
9594.153671 103.913 -156.9225
9663.676863 104.009 -159.2303
9733.703850 104.099 -161.5816
9804.238280 104.178 -163.9871
9875.283832 104.244 -166.4483
9946.844210 104.298 -168.9620
10018.923143 104.343 -171.5278
10091.524390 104.384 -174.1535
10164.651736 104.427 -176.8560
10238.308993 104.478 -179.6585
10312.500000 104.540 177.4129
10387.228626 104.614 174.3332
10462.498767 104.699 171.0810
10538.314345 104.793 167.6393
10614.679315 104.891 163.9962
10691.597657 104.988 160.1443
10769.073381 105.079 156.0804
10847.110526 105.154 151.8053
10925.713161 105.208 147.3245
11004.885382 105.232 142.6490
11084.631318 105.219 137.7949
11164.955126 105.162 132.7831
11245.860993 105.055 127.6400
11327.353138 104.893 122.3967
11409.435808 104.670 117.0905
11492.113283 104.384 111.7617
11575.389873 104.034 106.4522
11659.269920 103.619 101.2006
11743.757796 103.143 96.0407
11828.857906 102.609 90.9985
11914.574686 102.021 86.0904
12000.912606 101.386 81.3215
12087.876166 100.710 76.6848
12175.469900 100.000 72.1613
12263.698373 99.263 67.7214
12352.566187 98.508 63.3266
12442.077974 97.741 58.9311
12532.238400 96.969 54.4834
12623.052165 96.198 49.9282
12714.524005 95.433 45.2071
12806.658687 94.679 40.2590
12899.461015 93.937 35.0179
12992.935827 93.211 29.4066
13087.087996 92.502 23.3188
13181.922430 91.814 16.5828
13277.444074 91.150 8.8715
13373.657907 90.522 -0.5349
13470.568945 89.941 -13.5082
13568.182241 89.425 -35.9769
13666.502883 88.994 -83.8589
13765.535996 88.666 -136.2781
13865.286744 88.451 -161.5853
13965.760328 88.351 -175.6591
14066.961984 88.359 174.2575
14168.896989 88.455 165.9109
14271.570658 88.620 158.4394
14374.988342 88.829 151.4470
14479.155433 89.063 144.7261
14584.077362 89.304 138.1567
14689.759598 89.539 131.6644
14796.207652 89.759 125.2015
14903.427072 89.954 118.7366
15011.423448 90.121 112.2491
15120.202410 90.255 105.7277
15229.769630 90.351 99.1674
15340.130819 90.409 92.5698
15451.291730 90.426 85.9424
15563.258160 90.400 79.2977
15676.035944 90.332 72.6527
15789.630962 90.221 66.0297
15904.049137 90.071 59.4540
16019.296433 89.884 52.9550
16135.378859 89.670 46.5630
16252.302465 89.439 40.3058
16370.073348 89.211 34.2014
16488.697648 89.010 28.2488
16608.181548 88.867 22.4181
16728.531278 88.814 16.6439
16849.753112 88.876 10.8272
16971.853368 89.066 4.8467
17094.838414 89.384 -1.4226
17218.714660 89.815 -8.0891
17343.488565 90.338 -15.2274
17469.166632 90.933 -22.8729
17595.755415 91.584 -31.0242
17723.261512 92.279 -39.6550
17851.691571 93.009 -48.7302
17981.052287 93.765 -58.2240
18111.350404 94.535 -68.1353
18242.592715 95.306 -78.4975
18374.786062 96.062 -89.3850
18507.937336 96.787 -100.9243
18642.053479 97.467 -113.3273
18777.141484 98.089 -126.9768
18913.208391 98.643 -142.6174
19050.261296 99.123 -161.7499
19188.307342 99.526 172.9246
19327.353727 99.851 139.5363
19467.407699 100.102 105.0657
19608.476560 100.285 79.7074
19750.567664 100.411 63.8422
19893.688419 100.488 54.6389
20037.846286 100.524 50.3785
