* Measurement data measured by REW V5.31.3
* Source: EXCL: Headset (USB-C to 3.5mm Headphone Jack Adapter), MICROPHONE (Master Volume), 0, volume: 0.170
* Format: 256k Log Swept Sine, 1 sweep at -12.0 dBFS with no timing reference
* Dated: Feb 9, 2025 1:43:24 PM
* REW Settings:
*  C-weighting compensation: Off
*  Target level: 75.0 dB
* Note: ; 
* Measurement: Ouroboros (Golem Mod) L9
* Smoothing: 1/6 octave
* Frequency Step: 96 ppo
* Start Frequency: 20.0 Hz
*
* Freq(Hz) SPL(dB) Phase(degrees)
20.141602 106.058 -114.9556
20.287556 106.027 -115.1895
20.434568 105.985 -115.4993
20.582645 105.929 -115.8705
20.731796 105.859 -116.2879
20.882027 105.775 -116.7378
21.033346 105.677 -117.2087
21.185763 105.565 -117.6922
21.339284 105.441 -118.1832
21.493917 105.308 -118.6792
21.649671 105.166 -119.1799
21.806553 105.018 -119.6860
21.964572 104.868 -120.1988
22.123737 104.717 -120.7193
22.284054 104.568 -121.2472
22.445534 104.424 -121.7815
22.608183 104.287 -122.3195
22.772012 104.159 -122.8579
22.937027 104.042 -123.3929
23.103238 103.939 -123.9205
23.270654 103.851 -124.4372
23.439282 103.779 -124.9405
23.609133 103.724 -125.4287
23.780215 103.687 -125.9014
23.952536 103.667 -126.3594
24.126106 103.662 -126.8038
24.300934 103.671 -127.2365
24.477028 103.692 -127.6594
24.654399 103.722 -128.0745
24.833055 103.757 -128.4835
25.013005 103.795 -128.8883
25.194260 103.832 -129.2906
25.376828 103.866 -129.6929
25.560719 103.894 -130.0977
25.745942 103.914 -130.5084
25.932508 103.925 -130.9290
26.120426 103.925 -131.3635
26.309705 103.914 -131.8161
26.500356 103.892 -132.2899
26.692388 103.858 -132.7870
26.885812 103.813 -133.3076
27.080638 103.758 -133.8498
27.276876 103.694 -134.4092
27.474535 103.622 -134.9799
27.673627 103.543 -135.5545
27.874161 103.462 -136.1250
28.076149 103.380 -136.6839
28.279600 103.300 -137.2253
28.484526 103.226 -137.7449
28.690937 103.162 -138.2414
28.898843 103.111 -138.7156
29.108256 103.075 -139.1708
29.319186 103.055 -139.6119
29.531645 103.055 -140.0449
29.745644 103.072 -140.4764
29.961193 103.107 -140.9128
30.178304 103.158 -141.3600
30.396989 103.222 -141.8226
30.617258 103.296 -142.3033
30.839123 103.375 -142.8022
31.062596 103.456 -143.3163
31.287688 103.533 -143.8388
31.514412 103.602 -144.3588
31.742778 103.658 -144.8619
31.972800 103.698 -145.3314
32.204488 103.719 -145.7501
32.437855 103.718 -146.1020
32.672913 103.694 -146.3750
32.909674 103.647 -146.5621
33.148151 103.578 -146.6624
33.388356 103.487 -146.6807
33.630302 103.377 -146.6263
33.874001 103.248 -146.5113
34.119466 103.103 -146.3487
34.366710 102.945 -146.1510
34.615745 102.776 -145.9295
34.866585 102.601 -145.6941
35.119243 102.422 -145.4543
35.373731 102.245 -145.2194
35.630064 102.074 -144.9990
35.888254 101.913 -144.8024
36.148315 101.768 -144.6375
36.410261 101.640 -144.5093
36.674104 101.533 -144.4188
36.939860 101.447 -144.3627
37.207542 101.384 -144.3344
37.477163 101.345 -144.3258
37.748738 101.330 -144.3303
38.022281 101.341 -144.3441
38.297806 101.377 -144.3685
38.575327 101.438 -144.4091
38.854860 101.525 -144.4743
39.136419 101.635 -144.5728
39.420017 101.768 -144.7111
39.705671 101.921 -144.8912
39.993395 102.094 -145.1108
40.283203 102.286 -145.3635
40.575112 102.496 -145.6405
40.869136 102.722 -145.9331
41.165290 102.963 -146.2333
41.463591 103.216 -146.5356
41.764053 103.479 -146.8362
42.066693 103.748 -147.1333
42.371525 104.019 -147.4264
42.678567 104.288 -147.7164
42.987834 104.550 -148.0053
43.299341 104.805 -148.2960
43.613106 105.048 -148.5928
43.929145 105.279 -148.8999
44.247473 105.496 -149.2211
44.568109 105.699 -149.5588
44.891068 105.886 -149.9138
45.216367 106.057 -150.2845
45.544023 106.212 -150.6677
45.874054 106.350 -151.0584
46.206476 106.470 -151.4509
46.541307 106.571 -151.8395
46.878565 106.653 -152.2193
47.218266 106.715 -152.5876
47.560429 106.760 -152.9441
47.905072 106.786 -153.2911
48.252212 106.797 -153.6329
48.601867 106.792 -153.9742
48.954056 106.776 -154.3184
49.308798 106.748 -154.6670
49.666109 106.713 -155.0187
50.026010 106.671 -155.3710
50.388520 106.626 -155.7206
50.753656 106.580 -156.0647
51.121437 106.534 -156.4015
51.491884 106.489 -156.7300
51.865016 106.447 -157.0496
52.240851 106.408 -157.3596
52.619410 106.372 -157.6593
53.000712 106.341 -157.9483
53.384777 106.314 -158.2265
53.771625 106.290 -158.4946
54.161276 106.270 -158.7534
54.553751 106.253 -159.0039
54.949070 106.237 -159.2467
55.347254 106.222 -159.4821
55.748323 106.208 -159.7107
56.152298 106.192 -159.9340
56.559201 106.177 -160.1542
56.969052 106.160 -160.3749
57.381873 106.143 -160.5996
57.797686 106.125 -160.8312
58.216512 106.106 -161.0714
58.638373 106.087 -161.3203
59.063291 106.067 -161.5771
59.491288 106.048 -161.8407
59.922386 106.028 -162.1102
60.356608 106.009 -162.3859
60.793977 105.992 -162.6685
61.234515 105.976 -162.9597
61.678246 105.962 -163.2612
62.125192 105.951 -163.5749
62.575377 105.941 -163.9018
63.028824 105.933 -164.2427
63.485557 105.927 -164.5979
63.945599 105.925 -164.9680
64.408975 105.925 -165.3538
64.875709 105.928 -165.7572
65.345825 105.934 -166.1803
65.819348 105.944 -166.6252
66.296302 105.956 -167.0933
66.776713 105.971 -167.5855
67.260604 105.988 -168.1009
67.748002 106.006 -168.6380
68.238932 106.024 -169.1942
68.733420 106.043 -169.7664
69.231490 106.063 -170.3521
69.733170 106.082 -170.9489
70.238485 106.101 -171.5554
70.747463 106.120 -172.1706
71.260128 106.138 -172.7943
71.776508 106.156 -173.4261
72.296630 106.173 -174.0658
72.820521 106.189 -174.7127
73.348209 106.203 -175.3658
73.879720 106.217 -176.0235
74.415083 106.228 -176.6841
74.954326 106.237 -177.3455
75.497475 106.244 -178.0061
76.044561 106.249 -178.6646
76.595612 106.250 -179.3207
77.150655 106.248 -179.9744
77.709720 106.243 179.3737
78.272837 106.234 178.7229
78.840034 106.220 178.0728
79.411342 106.202 177.4232
79.986789 106.179 176.7744
80.566406 106.150 176.1269
81.150224 106.116 175.4810
81.738272 106.077 174.8372
82.330581 106.033 174.1959
82.927182 105.985 173.5573
83.528107 105.935 172.9216
84.133386 105.885 172.2891
84.743051 105.836 171.6599
85.357134 105.793 171.0342
85.975667 105.757 170.4125
86.598682 105.732 169.7949
87.226212 105.722 169.1822
87.858289 105.729 168.5749
88.494946 105.758 167.9739
89.136217 105.808 167.3801
89.782135 105.881 166.7940
90.432733 105.975 166.2158
91.088046 106.090 165.6453
91.748108 106.221 165.0815
92.412952 106.364 164.5232
93.082615 106.515 163.9690
93.757130 106.666 163.4176
94.436533 106.815 162.8678
95.120859 106.955 162.3192
95.810144 107.082 161.7713
96.504423 107.195 161.2243
97.203734 107.290 160.6784
97.908112 107.366 160.1343
98.617595 107.425 159.5925
99.332219 107.466 159.0541
100.052021 107.491 158.5201
100.777039 107.502 157.9917
101.507311 107.501 157.4700
102.242875 107.491 156.9562
102.983769 107.472 156.4514
103.730032 107.447 155.9565
104.481702 107.415 155.4727
105.238820 107.377 155.0004
106.001424 107.332 154.5400
106.769554 107.279 154.0916
107.543250 107.218 153.6549
108.322553 107.145 153.2296
109.107503 107.060 152.8149
109.898141 106.961 152.4100
110.694508 106.848 152.0141
111.496646 106.720 151.6264
112.304596 106.577 151.2465
113.118402 106.421 150.8743
113.938104 106.253 150.5102
114.763747 106.074 150.1547
115.595372 105.888 149.8084
116.433024 105.695 149.4718
117.276746 105.499 149.1451
118.126581 105.300 148.8283
118.982575 105.101 148.5215
119.844772 104.903 148.2245
120.713217 104.707 147.9380
121.587954 104.512 147.6628
122.469031 104.318 147.3999
123.356492 104.125 147.1507
124.250384 103.932 146.9165
125.150753 103.736 146.6986
126.057647 103.538 146.4983
126.971113 103.334 146.3167
127.891198 103.125 146.1548
128.817950 102.909 146.0135
129.751418 102.686 145.8934
130.691651 102.454 145.7953
131.638696 102.216 145.7197
132.592604 101.972 145.6672
133.553425 101.723 145.6386
134.521208 101.472 145.6343
135.496004 101.222 145.6547
136.477864 100.977 145.7003
137.466839 100.739 145.7716
138.462981 100.513 145.8691
139.466340 100.302 145.9934
140.476971 100.109 146.1450
141.494925 99.934 146.3245
142.520256 99.779 146.5322
143.553016 99.643 146.7684
144.593260 99.524 147.0336
145.641043 99.418 147.3279
146.696418 99.322 147.6513
147.759441 99.233 148.0038
148.830166 99.146 148.3852
149.908651 99.060 148.7950
150.994951 98.971 149.2329
152.089123 98.878 149.6982
153.191223 98.781 150.1900
154.301310 98.680 150.7074
155.419441 98.577 151.2495
156.545674 98.472 151.8151
157.680069 98.368 152.4029
158.822683 98.266 153.0117
159.973578 98.169 153.6403
161.132813 98.077 154.2875
162.300447 97.992 154.9525
163.476543 97.915 155.6343
164.661162 97.846 156.3328
165.854364 97.785 157.0476
167.056213 97.734 157.7784
168.266772 97.693 158.5247
169.486102 97.662 159.2861
170.714268 97.643 160.0613
171.951334 97.635 160.8486
173.197364 97.639 161.6456
174.452424 97.655 162.4486
175.716578 97.684 163.2529
176.989893 97.725 164.0529
178.272434 97.777 164.8420
179.564270 97.838 165.6136
180.865467 97.907 166.3608
182.176092 97.982 167.0779
183.496216 98.060 167.7596
184.825905 98.142 168.4026
186.165229 98.224 169.0044
187.514259 98.306 169.5642
188.873065 98.388 170.0821
190.241717 98.469 170.5589
191.620287 98.550 170.9962
193.008847 98.630 171.3959
194.407468 98.710 171.7599
195.816225 98.790 172.0903
197.235190 98.869 172.3890
198.664438 98.947 172.6579
200.104042 99.024 172.8987
201.554078 99.098 173.1131
203.014622 99.170 173.3027
204.485750 99.239 173.4691
205.967538 99.304 173.6141
207.460064 99.364 173.7392
208.963405 99.420 173.8458
210.477640 99.471 173.9352
212.002848 99.518 174.0087
213.539108 99.562 174.0673
215.086500 99.601 174.1116
216.645105 99.638 174.1426
218.215005 99.671 174.1610
219.796281 99.702 174.1674
221.389015 99.729 174.1625
222.993292 99.752 174.1468
224.609193 99.771 174.1210
226.236804 99.785 174.0858
227.876209 99.793 174.0420
229.527494 99.794 173.9904
231.190745 99.789 173.9321
232.866048 99.777 173.8682
234.553491 99.759 173.7998
236.253163 99.735 173.7282
237.965150 99.707 173.6543
239.689544 99.674 173.5789
241.426433 99.639 173.5023
243.175909 99.603 173.4245
244.938062 99.566 173.3449
246.712984 99.530 173.2626
248.500768 99.496 173.1763
250.301507 99.464 173.0845
252.115295 99.435 172.9861
253.942226 99.410 172.8799
255.782396 99.389 172.7655
257.635901 99.372 172.6429
259.502837 99.360 172.5126
261.383301 99.354 172.3760
263.277392 99.352 172.2347
265.185209 99.356 172.0905
267.106850 99.364 171.9449
269.042417 99.378 171.7996
270.992009 99.396 171.6553
272.955729 99.418 171.5122
274.933678 99.442 171.3699
276.925961 99.470 171.2275
278.932681 99.499 171.0834
280.953942 99.529 170.9362
282.989850 99.560 170.7844
285.040511 99.593 170.6268
287.106032 99.627 170.4634
289.186521 99.664 170.2943
291.282086 99.705 170.1203
293.392836 99.749 169.9429
295.518881 99.799 169.7636
297.660333 99.853 169.5841
299.817302 99.912 169.4061
301.989902 99.974 169.2310
304.178245 100.039 169.0601
306.382446 100.105 168.8946
308.602620 100.170 168.7352
310.838882 100.232 168.5822
313.091348 100.290 168.4357
315.360137 100.342 168.2955
317.645367 100.387 168.1613
319.947156 100.423 168.0327
322.265625 100.451 167.9092
324.600895 100.470 167.7903
326.953086 100.479 167.6756
329.322323 100.477 167.5646
331.708729 100.466 167.4569
334.112427 100.444 167.3522
336.533543 100.411 167.2506
338.972204 100.369 167.1523
341.428536 100.317 167.0580
343.902668 100.258 166.9688
346.394729 100.191 166.8854
348.904848 100.118 166.8088
351.433156 100.042 166.7397
353.979786 99.964 166.6783
356.544869 99.887 166.6244
359.128540 99.815 166.5775
361.730934 99.749 166.5367
364.352185 99.694 166.5005
366.992431 99.651 166.4679
369.651810 99.624 166.4373
372.330459 99.615 166.4074
375.028519 99.623 166.3773
377.746130 99.651 166.3461
380.483434 99.696 166.3133
383.240574 99.759 166.2786
386.017693 99.835 166.2417
388.814937 99.923 166.2024
391.632450 100.020 166.1602
394.470380 100.123 166.1143
397.328875 100.228 166.0637
400.208084 100.334 166.0075
403.108157 100.439 165.9449
406.029245 100.541 165.8755
408.971500 100.640 165.7990
411.935076 100.734 165.7162
414.920127 100.825 165.6281
417.926810 100.913 165.5363
420.955280 100.998 165.4429
424.005695 101.082 165.3500
427.078215 101.165 165.2597
430.173000 101.249 165.1735
433.290211 101.334 165.0920
436.430010 101.419 165.0146
439.592562 101.505 164.9397
442.778031 101.592 164.8648
445.986583 101.676 164.7870
449.218386 101.758 164.7035
452.473607 101.834 164.6117
455.752418 101.903 164.5099
459.054987 101.963 164.3972
462.381489 102.014 164.2732
465.732096 102.053 164.1384
469.106983 102.080 163.9933
472.506325 102.096 163.8391
475.930301 102.101 163.6770
479.379088 102.095 163.5082
482.852867 102.080 163.3341
486.351817 102.056 163.1560
489.876123 102.024 162.9752
493.425968 101.986 162.7928
497.001536 101.942 162.6102
500.603014 101.893 162.4284
504.230589 101.840 162.2487
507.884452 101.782 162.0720
511.564792 101.719 161.8993
515.271802 101.653 161.7315
519.005673 101.583 161.5693
522.766602 101.510 161.4131
526.554785 101.436 161.2633
530.370418 101.363 161.1201
534.213700 101.292 160.9835
538.084833 101.226 160.8536
541.984018 101.165 160.7303
545.911457 101.113 160.6135
549.867357 101.069 160.5032
553.851922 101.034 160.3995
557.865362 101.008 160.3025
561.907884 100.989 160.2122
565.979700 100.975 160.1285
570.081022 100.966 160.0516
574.212064 100.959 159.9810
578.373042 100.951 159.9165
582.564171 100.942 159.8575
586.785671 100.929 159.8033
591.037762 100.911 159.7533
595.320665 100.888 159.7065
599.634604 100.858 159.6621
603.979804 100.821 159.6194
608.356491 100.779 159.5774
612.764893 100.730 159.5355
617.205240 100.675 159.4930
621.677763 100.617 159.4495
626.182696 100.555 159.4044
630.720274 100.491 159.3578
635.290733 100.428 159.3093
639.894312 100.366 159.2594
644.531250 100.307 159.2082
649.201789 100.254 159.1564
653.906173 100.206 159.1045
658.644647 100.165 159.0535
663.417457 100.130 159.0041
668.224854 100.102 158.9571
673.067086 100.079 158.9133
677.944408 100.059 158.8730
682.857073 100.043 158.8367
687.805336 100.027 158.8044
692.789457 100.011 158.7759
697.809695 99.993 158.7509
702.866312 99.973 158.7290
707.959571 99.948 158.7097
713.089738 99.919 158.6929
718.257080 99.885 158.6781
723.461867 99.847 158.6654
728.704370 99.803 158.6548
733.984862 99.756 158.6465
739.303619 99.706 158.6408
744.660918 99.652 158.6381
750.057038 99.597 158.6388
755.492260 99.539 158.6436
760.966869 99.481 158.6528
766.481148 99.421 158.6669
772.035387 99.360 158.6863
777.629873 99.297 158.7111
783.264900 99.233 158.7414
788.940760 99.165 158.7770
794.657750 99.094 158.8179
800.416168 99.018 158.8636
806.216313 98.937 158.9139
812.058489 98.851 158.9682
817.943000 98.759 159.0259
823.870152 98.661 159.0863
829.840255 98.558 159.1484
835.853619 98.450 159.2110
841.910559 98.338 159.2730
848.011390 98.223 159.3329
854.156430 98.106 159.3893
860.346000 97.988 159.4409
866.580422 97.871 159.4860
872.860020 97.755 159.5234
879.185124 97.642 159.5521
885.556062 97.532 159.5715
891.973166 97.427 159.5817
898.436771 97.326 159.5835
904.947215 97.231 159.5789
911.504835 97.141 159.5702
918.109975 97.057 159.5607
924.762978 96.980 159.5533
931.464192 96.909 159.5512
938.213966 96.844 159.5569
945.012651 96.786 159.5728
951.860602 96.733 159.6011
958.758176 96.687 159.6447
965.705733 96.645 159.7070
972.703635 96.608 159.7927
979.752246 96.575 159.9077
986.851935 96.546 160.0587
994.003071 96.522 160.2532
1001.206027 96.502 160.4987
1008.461179 96.489 160.8025
1015.768904 96.485 161.1709
1023.129584 96.491 161.6088
1030.543603 96.511 162.1188
1038.011347 96.549 162.7003
1045.533205 96.607 163.3483
1053.109569 96.689 164.0519
1060.740836 96.796 164.7937
1068.427401 96.931 165.5491
1076.169666 97.092 166.2872
1083.968035 97.276 166.9723
1091.822915 97.479 167.5678
1099.734713 97.696 168.0404
1107.703844 97.919 168.3640
1115.730723 98.141 168.5235
1123.815768 98.354 168.5164
1131.959400 98.552 168.3527
1140.162045 98.731 168.0528
1148.424129 98.888 167.6445
1156.746083 99.021 167.1591
1165.128342 99.131 166.6281
1173.571343 99.220 166.0801
1182.075524 99.290 165.5394
1190.641331 99.345 165.0248
1199.269209 99.388 164.5499
1207.959608 99.422 164.1233
1216.712981 99.450 163.7492
1225.529785 99.474 163.4286
1234.410479 99.496 163.1599
1243.355526 99.517 162.9392
1252.365393 99.537 162.7619
1261.440549 99.557 162.6224
1270.581467 99.577 162.5153
1279.788624 99.595 162.4352
1289.062500 99.613 162.3775
1298.403578 99.629 162.3381
1307.812346 99.645 162.3140
1317.289293 99.658 162.3026
1326.834914 99.670 162.3019
1336.449707 99.681 162.3102
1346.134173 99.691 162.3260
1355.888816 99.699 162.3482
1365.714145 99.706 162.3755
1375.610673 99.712 162.4069
1385.578915 99.716 162.4415
1395.619391 99.719 162.4785
1405.732624 99.720 162.5169
1415.919142 99.720 162.5560
1426.179476 99.719 162.5950
1436.514160 99.718 162.6332
1446.923734 99.717 162.6702
1457.408740 99.717 162.7054
1467.969724 99.718 162.7385
1478.607238 99.723 162.7692
1489.321836 99.731 162.7972
1500.114076 99.742 162.8223
1510.984521 99.758 162.8439
1521.933737 99.778 162.8616
1532.962297 99.801 162.8749
1544.070773 99.828 162.8832
1555.259747 99.858 162.8860
1566.529800 99.890 162.8829
1577.881521 99.923 162.8737
1589.315501 99.957 162.8580
1600.832336 99.991 162.8361
1612.432627 100.023 162.8077
1624.116978 100.055 162.7732
1635.886000 100.086 162.7325
1647.740304 100.115 162.6857
1659.680509 100.143 162.6332
1671.707238 100.170 162.5752
1683.821118 100.196 162.5120
1696.022780 100.221 162.4440
1708.312860 100.245 162.3719
1720.692000 100.269 162.2962
1733.160843 100.293 162.2175
1745.720041 100.316 162.1366
1758.370248 100.338 162.0541
1771.112124 100.359 161.9707
1783.946332 100.378 161.8871
1796.873543 100.395 161.8038
1809.894429 100.409 161.7216
1823.009670 100.420 161.6409
1836.219950 100.427 161.5624
1849.525956 100.430 161.4868
1862.928384 100.430 161.4145
1876.427931 100.426 161.3463
1890.025301 100.419 161.2825
1903.721204 100.408 161.2237
1917.516352 100.395 161.1704
1931.411466 100.379 161.1231
1945.407270 100.360 161.0822
1959.504493 100.337 161.0485
1973.703870 100.310 161.0224
1988.006142 100.278 161.0048
2002.412054 100.240 160.9964
2016.922357 100.195 160.9982
2031.537808 100.143 161.0110
2046.259169 100.082 161.0360
2061.087206 100.012 161.0744
2076.022694 99.932 161.1275
2091.066410 99.843 161.1967
2106.219139 99.746 161.2833
2121.481671 99.639 161.3884
2136.854802 99.526 161.5131
2152.339333 99.406 161.6581
2167.936071 99.283 161.8237
2183.645829 99.156 162.0103
2199.469427 99.028 162.2174
2215.407689 98.900 162.4450
2231.461446 98.773 162.6923
2247.631536 98.649 162.9586
2263.918800 98.529 163.2433
2280.324089 98.413 163.5457
2296.848258 98.301 163.8651
2313.492167 98.193 164.2012
2330.256685 98.090 164.5536
2347.142685 97.990 164.9222
2364.151049 97.895 165.3071
2381.282662 97.804 165.7084
2398.538418 97.716 166.1263
2415.919216 97.631 166.5611
2433.425962 97.550 167.0130
2451.059570 97.473 167.4821
2468.820958 97.400 167.9686
2486.711052 97.332 168.4724
2504.730786 97.269 168.9935
2522.881098 97.212 169.5318
2541.162934 97.162 170.0868
2559.577248 97.119 170.6582
2578.125000 97.085 171.2454
2596.807157 97.061 171.8476
2615.624692 97.048 172.4640
2634.578586 97.047 173.0933
2653.669829 97.060 173.7338
2672.899414 97.087 174.3834
2692.268345 97.129 175.0393
2711.777632 97.186 175.6985
2731.428290 97.257 176.3572
2751.221345 97.341 177.0116
2771.157829 97.437 177.6581
2791.238781 97.544 178.2934
2811.465248 97.657 178.9150
2831.838284 97.776 179.5211
2852.358952 97.897 -179.8891
2873.028321 98.018 -179.3154
2893.847468 98.136 -178.7572
2914.817480 98.250 -178.2129
2935.939449 98.357 -177.6806
2957.214476 98.457 -177.1580
2978.643672 98.549 -176.6431
3000.228152 98.633 -176.1341
3021.969041 98.708 -175.6294
3043.867475 98.774 -175.1282
3065.924593 98.834 -174.6297
3088.141547 98.886 -174.1337
3110.519493 98.932 -173.6399
3133.059600 98.972 -173.1483
3155.763041 99.008 -172.6588
3178.631001 99.040 -172.1713
3201.664672 99.068 -171.6857
3224.865254 99.094 -171.2017
3248.233957 99.118 -170.7192
3271.771999 99.140 -170.2377
3295.480608 99.161 -169.7571
3319.361019 99.182 -169.2768
3343.414477 99.204 -168.7967
3367.642236 99.226 -168.3161
3392.045560 99.250 -167.8345
3416.625721 99.276 -167.3507
3441.383999 99.305 -166.8637
3466.321686 99.338 -166.3718
3491.440082 99.375 -165.8737
3516.740496 99.418 -165.3682
3542.224247 99.467 -164.8544
3567.892664 99.523 -164.3326
3593.747085 99.588 -163.8038
3619.788858 99.662 -163.2701
3646.019340 99.745 -162.7345
3672.439900 99.839 -162.2007
3699.051913 99.943 -161.6727
3725.856768 100.057 -161.1547
3752.855862 100.180 -160.6502
3780.050603 100.313 -160.1622
3807.442408 100.455 -159.6930
3835.032705 100.605 -159.2437
3862.822933 100.762 -158.8151
3890.814540 100.926 -158.4073
3919.008986 101.097 -158.0199
3947.407741 101.274 -157.6528
3976.012284 101.456 -157.3058
4004.824108 101.643 -156.9792
4033.844715 101.835 -156.6734
4063.075616 102.030 -156.3889
4092.518337 102.229 -156.1267
4122.174412 102.432 -155.8875
4152.045387 102.638 -155.6725
4182.132820 102.847 -155.4834
4212.438278 103.060 -155.3227
4242.963342 103.277 -155.1940
4273.709604 103.498 -155.1024
4304.678665 103.723 -155.0552
4335.872141 103.952 -155.0611
4367.291658 104.185 -155.1303
4398.938854 104.421 -155.2744
4430.815378 104.659 -155.5054
4462.922893 104.897 -155.8351
4495.263072 105.133 -156.2744
4527.837601 105.366 -156.8330
4560.648179 105.593 -157.5187
4593.696515 105.812 -158.3369
4626.984334 106.021 -159.2906
4660.513370 106.216 -160.3804
4694.285371 106.397 -161.6036
4728.302098 106.559 -162.9550
4762.565324 106.703 -164.4264
4797.076835 106.824 -166.0066
4831.838432 106.923 -167.6819
4866.851925 106.998 -169.4359
4902.119140 107.046 -171.2503
4937.641916 107.069 -173.1049
4973.422105 107.066 -174.9784
5009.461572 107.036 -176.8487
5045.762195 106.982 -178.6938
5082.325868 106.903 179.5082
5119.154496 106.801 177.7783
5156.250000 106.678 176.1360
5193.614313 106.537 174.5995
5231.249383 106.380 173.1846
5269.157173 106.209 171.9049
5307.339658 106.028 170.7711
5345.798829 105.840 169.7911
5384.536691 105.647 168.9695
5423.555263 105.453 168.3076
5462.856580 105.262 167.8029
5502.442691 105.078 167.4491
5542.315659 104.904 167.2360
5582.477563 104.745 167.1494
5622.930497 104.604 167.1711
5663.676569 104.485 167.2793
5704.717904 104.392 167.4488
5746.056642 104.327 167.6521
5787.694937 104.293 167.8600
5829.634960 104.289 168.0431
5871.878898 104.316 168.1726
5914.428953 104.371 168.2218
5957.287343 104.452 168.1668
6000.456303 104.555 167.9876
6043.938083 104.675 167.6683
6087.734950 104.806 167.1972
6131.849187 104.942 166.5672
6176.283094 105.079 165.7749
6221.038987 105.210 164.8209
6266.119200 105.330 163.7088
6311.526083 105.435 162.4452
6357.262002 105.520 161.0391
6403.329344 105.582 159.5015
6449.730508 105.618 157.8453
6496.467914 105.624 156.0852
6543.543998 105.600 154.2373
6590.961215 105.542 152.3192
6638.722037 105.450 150.3503
6686.828954 105.323 148.3511
6735.284473 105.161 146.3438
6784.091120 104.964 144.3510
6833.251441 104.733 142.3966
6882.767998 104.470 140.5042
6932.643372 104.176 138.6971
6982.880164 103.853 136.9977
7033.480992 103.504 135.4270
7084.448495 103.133 134.0040
7135.785329 102.743 132.7452
7187.494171 102.339 131.6646
7239.577717 101.924 130.7724
7292.038681 101.504 130.0748
7344.879799 101.083 129.5729
7398.103826 100.666 129.2616
7451.713536 100.260 129.1283
7505.711724 99.870 129.1514
7560.101205 99.501 129.2991
7614.884815 99.159 129.5285
7670.065409 98.849 129.7852
7725.645865 98.574 130.0037
7781.629080 98.338 130.1102
7838.017972 98.141 130.0248
7894.815481 97.983 129.6661
7952.024569 97.860 128.9553
8009.648217 97.766 127.8199
8067.689429 97.692 126.1974
8126.151233 97.628 124.0356
8185.036674 97.561 121.2930
8244.348824 97.480 117.9350
8304.090774 97.374 113.9280
8364.265639 97.231 109.2294
8424.876556 97.047 103.7684
8485.926684 96.818 97.4161
8547.419207 96.545 89.9290
8609.357330 96.236 80.8466
8671.744282 95.904 69.3071
8734.583316 95.567 53.7830
8797.877707 95.245 32.2231
8861.630756 94.962 4.6962
8925.845785 94.739 -22.6393
8990.526143 94.591 -43.7749
9055.675202 94.525 -58.7929
9121.296357 94.539 -69.7882
9187.393031 94.621 -78.3226
9253.968668 94.755 -85.3098
9321.026740 94.923 -91.2745
9388.570742 95.106 -96.5288
9456.604196 95.290 -101.2667
9525.130648 95.462 -105.6140
9594.153671 95.611 -109.6544
9663.676863 95.730 -113.4456
9733.703850 95.814 -117.0262
9804.238280 95.861 -120.4229
9875.283832 95.867 -123.6523
9946.844210 95.834 -126.7253
10018.923143 95.761 -129.6482
10091.524390 95.652 -132.4248
10164.651736 95.509 -135.0588
10238.308993 95.336 -137.5543
10312.500000 95.138 -139.9169
10387.228626 94.918 -142.1543
10462.498767 94.680 -144.2753
10538.314345 94.429 -146.2898
10614.679315 94.165 -148.2084
10691.597657 93.892 -150.0406
10769.073381 93.609 -151.7950
10847.110526 93.316 -153.4781
10925.713161 93.012 -155.0939
11004.885382 92.696 -156.6443
11084.631318 92.363 -158.1288
11164.955126 92.014 -159.5450
11245.860993 91.644 -160.8895
11327.353138 91.252 -162.1581
11409.435808 90.838 -163.3472
11492.113283 90.401 -164.4550
11575.389873 89.941 -165.4829
11659.269920 89.462 -166.4381
11743.757796 88.965 -167.3353
11828.857906 88.455 -168.1979
11914.574686 87.935 -169.0582
12000.912606 87.410 -169.9556
12087.876166 86.882 -170.9328
12175.469900 86.352 -172.0305
12263.698373 85.820 -173.2821
12352.566187 85.283 -174.7090
12442.077974 84.734 -176.3166
12532.238400 84.168 -178.0922
12623.052165 83.577 179.9960
12714.524005 82.954 178.0010
12806.658687 82.293 175.9988
12899.461015 81.588 174.0952
12992.935827 80.838 172.4394
13087.087996 80.045 171.2551
13181.922430 79.215 170.9132
13277.444074 78.360 172.1144
13373.657907 77.495 176.4052
13470.568945 76.642 -172.2340
13568.182241 75.829 -144.4880
13666.502883 75.084 -104.0768
13765.535996 74.433 -80.5535
13865.286744 73.894 -70.7701
13965.760328 73.471 -66.5741
14066.961984 73.155 -64.7699
14168.896989 72.928 -64.0813
14271.570658 72.766 -63.9004
14374.988342 72.645 -63.8722
14479.155433 72.551 -63.7374
14584.077362 72.477 -63.2644
14689.759598 72.428 -62.2224
14796.207652 72.419 -60.3833
14903.427072 72.471 -57.5610
15011.423448 72.611 -53.6978
15120.202410 72.855 -48.9802
15229.769630 73.209 -43.9009
15340.130819 73.659 -39.1570
15451.291730 74.179 -35.3984
15563.258160 74.735 -33.0183
15676.035944 75.292 -32.1206
15789.630962 75.820 -32.6128
15904.049137 76.293 -34.3114
16019.296433 76.694 -37.0100
16135.378859 77.010 -40.5106
16252.302465 77.231 -44.6345
16370.073348 77.353 -49.2247
16488.697648 77.376 -54.1448
16608.181548 77.298 -59.2748
16728.531278 77.122 -64.5073
16849.753112 76.850 -69.7424
16971.853368 76.486 -74.8805
17094.838414 76.034 -79.8163
17218.714660 75.497 -84.4294
17343.488565 74.882 -88.5740
17469.166632 74.196 -92.0640
17595.755415 73.447 -94.6551
17723.261512 72.647 -96.0266
17851.691571 71.816 -95.7760
17981.052287 70.977 -93.4680
18111.350404 70.165 -88.8226
18242.592715 69.424 -82.0972
18374.786062 68.807 -74.4010
18507.937336 68.364 -67.3359
18642.053479 68.132 -62.0820
18777.141484 68.116 -58.9673
18913.208391 68.290 -57.7431
19050.261296 68.606 -57.9682
19188.307342 69.005 -59.2048
19327.353727 69.435 -61.0710
19467.407699 69.851 -63.2366
19608.476560 70.220 -65.4083
19750.567664 70.517 -67.3220
19893.688419 70.723 -68.7480
20037.846286 70.829 -69.5101
