* Measurement data measured by REW V5.31.3
* Source: EXCL: Headset (USB-C to 3.5mm Headphone Jack Adapter), MICROPHONE (Master Volume), 0, volume: 0.250
* Format: 256k Log Swept Sine, 1 sweep at -12.0 dBFS with no timing reference
* Dated: Feb 9, 2025 5:07:18 PM
* REW Settings:
*  C-weighting compensation: Off
*  Target level: 75.0 dB
* Note: ; 
* Measurement: uroboros (Golem Mod) R10
* Smoothing: 1/6 octave
* Frequency Step: 96 ppo
* Start Frequency: 20.0 Hz
*
* Freq(Hz) SPL(dB) Phase(degrees)
20.141602 105.150 -116.7333
20.287556 105.142 -116.9944
20.434568 105.129 -117.3373
20.582645 105.109 -117.7431
20.731796 105.080 -118.1919
20.882027 105.040 -118.6651
21.033346 104.987 -119.1469
21.185763 104.922 -119.6250
21.339284 104.843 -120.0914
21.493917 104.753 -120.5426
21.649671 104.651 -120.9786
21.806553 104.541 -121.4031
21.964572 104.423 -121.8220
22.123737 104.302 -122.2432
22.284054 104.178 -122.6750
22.445534 104.054 -123.1254
22.608183 103.932 -123.6012
22.772012 103.813 -124.1071
22.937027 103.700 -124.6456
23.103238 103.592 -125.2162
23.270654 103.492 -125.8162
23.439282 103.401 -126.4407
23.609133 103.318 -127.0831
23.780215 103.245 -127.7364
23.952536 103.184 -128.3933
24.126106 103.134 -129.0478
24.300934 103.096 -129.6950
24.477028 103.069 -130.3320
24.654399 103.054 -130.9580
24.833055 103.048 -131.5737
25.013005 103.051 -132.1811
25.194260 103.059 -132.7831
25.376828 103.070 -133.3826
25.560719 103.081 -133.9816
25.745942 103.090 -134.5815
25.932508 103.095 -135.1821
26.120426 103.093 -135.7818
26.309705 103.083 -136.3779
26.500356 103.065 -136.9667
26.692388 103.039 -137.5442
26.885812 103.005 -138.1063
27.080638 102.963 -138.6497
27.276876 102.917 -139.1719
27.474535 102.866 -139.6718
27.673627 102.815 -140.1496
27.874161 102.764 -140.6072
28.076149 102.718 -141.0477
28.279600 102.678 -141.4754
28.484526 102.648 -141.8952
28.690937 102.630 -142.3125
28.898843 102.625 -142.7320
29.108256 102.637 -143.1579
29.319186 102.664 -143.5932
29.531645 102.707 -144.0389
29.745644 102.764 -144.4946
29.961193 102.833 -144.9577
30.178304 102.910 -145.4244
30.396989 102.993 -145.8896
30.617258 103.077 -146.3479
30.839123 103.157 -146.7941
31.062596 103.230 -147.2239
31.287688 103.291 -147.6349
31.514412 103.337 -148.0260
31.742778 103.364 -148.3984
31.972800 103.369 -148.7546
32.204488 103.350 -149.0981
32.437855 103.307 -149.4326
32.672913 103.236 -149.7617
32.909674 103.140 -150.0878
33.148151 103.019 -150.4123
33.388356 102.874 -150.7352
33.630302 102.707 -151.0557
33.874001 102.523 -151.3722
34.119466 102.325 -151.6829
34.366710 102.117 -151.9860
34.615745 101.904 -152.2804
34.866585 101.688 -152.5653
35.119243 101.476 -152.8407
35.373731 101.269 -153.1072
35.630064 101.071 -153.3656
35.888254 100.885 -153.6171
36.148315 100.713 -153.8628
36.410261 100.557 -154.1034
36.674104 100.417 -154.3395
36.939860 100.296 -154.5712
37.207542 100.194 -154.7980
37.477163 100.113 -155.0191
37.748738 100.052 -155.2335
38.022281 100.014 -155.4399
38.297806 99.999 -155.6367
38.575327 100.006 -155.8226
38.854860 100.036 -155.9960
39.136419 100.089 -156.1556
39.420017 100.164 -156.3006
39.705671 100.260 -156.4306
39.993395 100.376 -156.5463
40.283203 100.512 -156.6492
40.575112 100.664 -156.7419
40.869136 100.832 -156.8274
41.165290 101.014 -156.9092
41.463591 101.207 -156.9905
41.764053 101.409 -157.0741
42.066693 101.617 -157.1618
42.371525 101.831 -157.2553
42.678567 102.046 -157.3552
42.987834 102.261 -157.4621
43.299341 102.472 -157.5759
43.613106 102.679 -157.6963
43.929145 102.877 -157.8230
44.247473 103.066 -157.9554
44.568109 103.243 -158.0930
44.891068 103.407 -158.2357
45.216367 103.556 -158.3834
45.544023 103.689 -158.5362
45.874054 103.805 -158.6938
46.206476 103.904 -158.8558
46.541307 103.984 -159.0214
46.878565 104.046 -159.1899
47.218266 104.091 -159.3609
47.560429 104.119 -159.5341
47.905072 104.133 -159.7095
48.252212 104.132 -159.8866
48.601867 104.119 -160.0644
48.954056 104.094 -160.2406
49.308798 104.061 -160.4126
49.666109 104.021 -160.5772
50.026010 103.975 -160.7321
50.388520 103.925 -160.8759
50.753656 103.873 -161.0085
51.121437 103.821 -161.1309
51.491884 103.770 -161.2449
51.865016 103.720 -161.3521
52.240851 103.673 -161.4533
52.619410 103.628 -161.5486
53.000712 103.587 -161.6375
53.384777 103.549 -161.7187
53.771625 103.513 -161.7911
54.161276 103.480 -161.8539
54.553751 103.449 -161.9074
54.949070 103.418 -161.9527
55.347254 103.389 -161.9916
55.748323 103.359 -162.0266
56.152298 103.329 -162.0600
56.559201 103.299 -162.0937
56.969052 103.268 -162.1286
57.381873 103.236 -162.1644
57.797686 103.205 -162.2000
58.216512 103.173 -162.2334
58.638373 103.142 -162.2630
59.063291 103.111 -162.2876
59.491288 103.082 -162.3071
59.922386 103.053 -162.3227
60.356608 103.027 -162.3363
60.793977 103.002 -162.3510
61.234515 102.980 -162.3698
61.678246 102.961 -162.3959
62.125192 102.945 -162.4318
62.575377 102.932 -162.4796
63.028824 102.923 -162.5406
63.485557 102.918 -162.6156
63.945599 102.918 -162.7046
64.408975 102.922 -162.8076
64.875709 102.930 -162.9240
65.345825 102.944 -163.0535
65.819348 102.961 -163.1961
66.296302 102.983 -163.3524
66.776713 103.009 -163.5236
67.260604 103.039 -163.7119
67.748002 103.072 -163.9194
68.238932 103.109 -164.1481
68.733420 103.148 -164.3995
69.231490 103.190 -164.6740
69.733170 103.235 -164.9714
70.238485 103.281 -165.2909
70.747463 103.330 -165.6318
71.260128 103.380 -165.9929
71.776508 103.432 -166.3736
72.296630 103.484 -166.7733
72.820521 103.537 -167.1917
73.348209 103.591 -167.6283
73.879720 103.644 -168.0826
74.415083 103.696 -168.5537
74.954326 103.747 -169.0409
75.497475 103.797 -169.5435
76.044561 103.844 -170.0605
76.595612 103.889 -170.5914
77.150655 103.931 -171.1352
77.709720 103.969 -171.6913
78.272837 104.003 -172.2592
78.840034 104.033 -172.8383
79.411342 104.057 -173.4283
79.986789 104.076 -174.0285
80.566406 104.089 -174.6387
81.150224 104.096 -175.2584
81.738272 104.098 -175.8874
82.330581 104.095 -176.5256
82.927182 104.089 -177.1731
83.528107 104.080 -177.8296
84.133386 104.070 -178.4949
84.743051 104.061 -179.1685
85.357134 104.056 -179.8498
85.975667 104.057 179.4620
86.598682 104.069 178.7679
87.226212 104.093 178.0693
87.858289 104.134 177.3674
88.494946 104.193 176.6639
89.136217 104.272 175.9603
89.782135 104.372 175.2578
90.432733 104.493 174.5575
91.088046 104.631 173.8601
91.748108 104.785 173.1664
92.412952 104.950 172.4767
93.082615 105.120 171.7913
93.757130 105.290 171.1105
94.436533 105.456 170.4345
95.120859 105.612 169.7637
95.810144 105.754 169.0985
96.504423 105.880 168.4393
97.203734 105.987 167.7867
97.908112 106.075 167.1411
98.617595 106.143 166.5028
99.332219 106.193 165.8724
100.052021 106.226 165.2502
100.777039 106.243 164.6367
101.507311 106.247 164.0320
102.242875 106.241 163.4362
102.983769 106.226 162.8494
103.730032 106.203 162.2712
104.481702 106.173 161.7018
105.238820 106.137 161.1410
106.001424 106.094 160.5891
106.769554 106.043 160.0466
107.543250 105.983 159.5143
108.322553 105.913 158.9931
109.107503 105.830 158.4840
109.898141 105.733 157.9879
110.694508 105.621 157.5056
111.496646 105.495 157.0377
112.304596 105.353 156.5846
113.118402 105.198 156.1465
113.938104 105.029 155.7238
114.763747 104.850 155.3164
115.595372 104.663 154.9247
116.433024 104.469 154.5490
117.276746 104.271 154.1898
118.126581 104.070 153.8478
118.982575 103.870 153.5239
119.844772 103.670 153.2188
120.713217 103.472 152.9331
121.587954 103.276 152.6672
122.469031 103.081 152.4211
123.356492 102.887 152.1947
124.250384 102.692 151.9880
125.150753 102.495 151.8008
126.057647 102.294 151.6331
126.971113 102.089 151.4850
127.891198 101.877 151.3569
128.817950 101.659 151.2490
129.751418 101.433 151.1622
130.691651 101.200 151.0971
131.638696 100.960 151.0548
132.592604 100.716 151.0364
133.553425 100.467 151.0432
134.521208 100.218 151.0765
135.496004 99.971 151.1370
136.477864 99.729 151.2255
137.466839 99.497 151.3422
138.462981 99.277 151.4874
139.466340 99.072 151.6608
140.476971 98.887 151.8621
141.494925 98.721 152.0912
142.520256 98.575 152.3479
143.553016 98.449 152.6320
144.593260 98.341 152.9434
145.641043 98.246 153.2822
146.696418 98.163 153.6480
147.759441 98.087 154.0405
148.830166 98.014 154.4589
149.908651 97.942 154.9025
150.994951 97.868 155.3701
152.089123 97.792 155.8604
153.191223 97.712 156.3723
154.301310 97.630 156.9041
155.419441 97.547 157.4544
156.545674 97.464 158.0215
157.680069 97.383 158.6038
158.822683 97.306 159.1989
159.973578 97.234 159.8049
161.132813 97.170 160.4195
162.300447 97.113 161.0406
163.476543 97.064 161.6660
164.661162 97.023 162.2938
165.854364 96.992 162.9218
167.056213 96.970 163.5482
168.266772 96.957 164.1711
169.486102 96.953 164.7886
170.714268 96.959 165.3987
171.951334 96.975 165.9998
173.197364 97.000 166.5898
174.452424 97.035 167.1673
175.716578 97.078 167.7304
176.989893 97.128 168.2776
178.272434 97.186 168.8071
179.564270 97.248 169.3174
180.865467 97.313 169.8073
182.176092 97.381 170.2756
183.496216 97.449 170.7217
184.825905 97.517 171.1451
186.165229 97.584 171.5454
187.514259 97.649 171.9227
188.873065 97.713 172.2770
190.241717 97.776 172.6087
191.620287 97.839 172.9178
193.008847 97.901 173.2047
194.407468 97.963 173.4694
195.816225 98.026 173.7123
197.235190 98.089 173.9338
198.664438 98.151 174.1340
200.104042 98.213 174.3134
201.554078 98.274 174.4724
203.014622 98.333 174.6116
204.485750 98.389 174.7314
205.967538 98.442 174.8325
207.460064 98.491 174.9157
208.963405 98.536 174.9816
210.477640 98.576 175.0309
212.002848 98.613 175.0644
213.539108 98.645 175.0825
215.086500 98.674 175.0860
216.645105 98.699 175.0757
218.215005 98.721 175.0524
219.796281 98.741 175.0167
221.389015 98.756 174.9695
222.993292 98.768 174.9113
224.609193 98.775 174.8431
226.236804 98.777 174.7656
227.876209 98.773 174.6798
229.527494 98.763 174.5867
231.190745 98.745 174.4873
232.866048 98.721 174.3829
234.553491 98.689 174.2743
236.253163 98.652 174.1627
237.965150 98.609 174.0489
239.689544 98.561 173.9337
241.426433 98.510 173.8180
243.175909 98.456 173.7025
244.938062 98.401 173.5878
246.712984 98.345 173.4749
248.500768 98.290 173.3646
250.301507 98.235 173.2578
252.115295 98.183 173.1554
253.942226 98.133 173.0585
255.782396 98.086 172.9679
257.635901 98.043 172.8846
259.502837 98.005 172.8094
261.383301 97.971 172.7433
263.277392 97.943 172.6865
265.185209 97.922 172.6397
267.106850 97.906 172.6028
269.042417 97.896 172.5757
270.992009 97.893 172.5579
272.955729 97.895 172.5488
274.933678 97.903 172.5475
276.925961 97.915 172.5533
278.932681 97.932 172.5652
280.953942 97.953 172.5821
282.989850 97.978 172.6030
285.040511 98.007 172.6265
287.106032 98.041 172.6513
289.186521 98.080 172.6758
291.282086 98.125 172.6984
293.392836 98.178 172.7175
295.518881 98.237 172.7313
297.660333 98.303 172.7382
299.817302 98.376 172.7367
301.989902 98.454 172.7255
304.178245 98.536 172.7036
306.382446 98.619 172.6703
308.602620 98.703 172.6254
310.838882 98.784 172.5689
313.091348 98.861 172.5014
315.360137 98.932 172.4237
317.645367 98.996 172.3367
319.947156 99.051 172.2415
322.265625 99.096 172.1390
324.600895 99.131 172.0303
326.953086 99.155 171.9160
329.322323 99.168 171.7970
331.708729 99.169 171.6740
334.112427 99.159 171.5478
336.533543 99.138 171.4191
338.972204 99.105 171.2885
341.428536 99.063 171.1569
343.902668 99.011 171.0250
346.394729 98.951 170.8934
348.904848 98.884 170.7628
351.433156 98.813 170.6338
353.979786 98.740 170.5067
356.544869 98.667 170.3821
359.128540 98.597 170.2603
361.730934 98.532 170.1415
364.352185 98.476 170.0261
366.992431 98.431 169.9138
369.651810 98.400 169.8047
372.330459 98.384 169.6987
375.028519 98.385 169.5955
377.746130 98.403 169.4950
380.483434 98.437 169.3970
383.240574 98.486 169.3017
386.017693 98.548 169.2091
388.814937 98.621 169.1196
391.632450 98.702 169.0336
394.470380 98.787 168.9515
397.328875 98.875 168.8739
400.208084 98.964 168.8012
403.108157 99.051 168.7341
406.029245 99.135 168.6733
408.971500 99.215 168.6194
411.935076 99.292 168.5732
414.920127 99.365 168.5352
417.926810 99.435 168.5059
420.955280 99.502 168.4857
424.005695 99.568 168.4749
427.078215 99.634 168.4734
430.173000 99.700 168.4810
433.290211 99.767 168.4973
436.430010 99.834 168.5218
439.592562 99.902 168.5538
442.778031 99.969 168.5927
445.986583 100.035 168.6378
449.218386 100.098 168.6888
452.473607 100.156 168.7453
455.752418 100.209 168.8069
459.054987 100.253 168.8732
462.381489 100.290 168.9438
465.732096 100.317 169.0182
469.106983 100.335 169.0955
472.506325 100.344 169.1747
475.930301 100.344 169.2549
479.379088 100.337 169.3347
482.852867 100.322 169.4127
486.351817 100.301 169.4874
489.876123 100.276 169.5576
493.425968 100.247 169.6218
497.001536 100.214 169.6790
500.603014 100.179 169.7284
504.230589 100.141 169.7695
507.884452 100.101 169.8020
511.564792 100.058 169.8261
515.271802 100.013 169.8423
519.005673 99.966 169.8512
522.766602 99.917 169.8538
526.554785 99.869 169.8510
530.370418 99.822 169.8439
534.213700 99.778 169.8335
538.084833 99.739 169.8202
541.984018 99.707 169.8042
545.911457 99.683 169.7850
549.867357 99.669 169.7615
553.851922 99.665 169.7322
557.865362 99.669 169.6956
561.907884 99.681 169.6497
565.979700 99.699 169.5935
570.081022 99.719 169.5259
574.212064 99.741 169.4469
578.373042 99.761 169.3568
582.564171 99.777 169.2567
586.785671 99.788 169.1482
591.037762 99.792 169.0331
595.320665 99.787 168.9133
599.634604 99.774 168.7912
603.979804 99.752 168.6687
608.356491 99.721 168.5477
612.764893 99.681 168.4301
617.205240 99.633 168.3171
621.677763 99.580 168.2101
626.182696 99.521 168.1098
630.720274 99.459 168.0169
635.290733 99.396 167.9316
639.894312 99.334 167.8540
644.531250 99.275 167.7839
649.201789 99.220 167.7211
653.906173 99.170 167.6654
658.644647 99.128 167.6166
663.417457 99.091 167.5745
668.224854 99.061 167.5393
673.067086 99.036 167.5114
677.944408 99.015 167.4911
682.857073 98.996 167.4794
687.805336 98.977 167.4771
692.789457 98.958 167.4852
697.809695 98.936 167.5048
702.866312 98.912 167.5368
707.959571 98.883 167.5822
713.089738 98.850 167.6418
718.257080 98.813 167.7162
723.461867 98.772 167.8057
728.704370 98.727 167.9104
733.984862 98.680 168.0300
739.303619 98.630 168.1637
744.660918 98.580 168.3105
750.057038 98.530 168.4687
755.492260 98.481 168.6364
760.966869 98.433 168.8110
766.481148 98.387 168.9900
772.035387 98.342 169.1703
777.629873 98.298 169.3487
783.264900 98.255 169.5223
788.940760 98.210 169.6882
794.657750 98.164 169.8441
800.416168 98.114 169.9884
806.216313 98.060 170.1202
812.058489 98.000 170.2393
817.943000 97.935 170.3463
823.870152 97.863 170.4421
829.840255 97.786 170.5284
835.853619 97.703 170.6065
841.910559 97.615 170.6778
848.011390 97.523 170.7435
854.156430 97.428 170.8045
860.346000 97.332 170.8611
866.580422 97.236 170.9136
872.860020 97.140 170.9615
879.185124 97.047 171.0041
885.556062 96.958 171.0404
891.973166 96.873 171.0688
898.436771 96.795 171.0877
904.947215 96.724 171.0949
911.504835 96.660 171.0883
918.109975 96.604 171.0660
924.762978 96.556 171.0271
931.464192 96.516 170.9717
938.213966 96.483 170.9016
945.012651 96.455 170.8208
951.860602 96.433 170.7353
958.758176 96.414 170.6531
965.705733 96.397 170.5832
972.703635 96.383 170.5348
979.752246 96.371 170.5168
986.851935 96.360 170.5363
994.003071 96.352 170.5993
1001.206027 96.347 170.7100
1008.461179 96.347 170.8713
1015.768904 96.352 171.0854
1023.129584 96.365 171.3541
1030.543603 96.388 171.6787
1038.011347 96.423 172.0602
1045.533205 96.473 172.4984
1053.109569 96.541 172.9913
1060.740836 96.628 173.5342
1068.427401 96.737 174.1176
1076.169666 96.869 174.7266
1083.968035 97.023 175.3402
1091.822915 97.198 175.9311
1099.734713 97.391 176.4677
1107.703844 97.596 176.9168
1115.730723 97.808 177.2487
1123.815768 98.020 177.4408
1131.959400 98.224 177.4825
1140.162045 98.415 177.3765
1148.424129 98.588 177.1383
1156.746083 98.739 176.7933
1165.128342 98.867 176.3723
1173.571343 98.974 175.9070
1182.075524 99.060 175.4265
1190.641331 99.130 174.9549
1199.269209 99.187 174.5107
1207.959608 99.233 174.1064
1216.712981 99.273 173.7496
1225.529785 99.308 173.4432
1234.410479 99.341 173.1871
1243.355526 99.373 172.9788
1252.365393 99.404 172.8142
1261.440549 99.435 172.6884
1270.581467 99.465 172.5963
1279.788624 99.494 172.5330
1289.062500 99.522 172.4941
1298.403578 99.549 172.4760
1307.812346 99.573 172.4759
1317.289293 99.596 172.4917
1326.834914 99.618 172.5220
1336.449707 99.638 172.5656
1346.134173 99.657 172.6211
1355.888816 99.675 172.6872
1365.714145 99.694 172.7621
1375.610673 99.712 172.8442
1385.578915 99.731 172.9312
1395.619391 99.750 173.0214
1405.732624 99.770 173.1126
1415.919142 99.790 173.2031
1426.179476 99.812 173.2910
1436.514160 99.834 173.3746
1446.923734 99.859 173.4523
1457.408740 99.886 173.5226
1467.969724 99.916 173.5840
1478.607238 99.949 173.6351
1489.321836 99.986 173.6747
1500.114076 100.026 173.7018
1510.984521 100.071 173.7156
1521.933737 100.120 173.7155
1532.962297 100.173 173.7014
1544.070773 100.228 173.6733
1555.259747 100.286 173.6315
1566.529800 100.345 173.5769
1577.881521 100.406 173.5103
1589.315501 100.467 173.4327
1600.832336 100.528 173.3455
1612.432627 100.588 173.2493
1624.116978 100.647 173.1449
1635.886000 100.705 173.0326
1647.740304 100.762 172.9122
1659.680509 100.818 172.7835
1671.707238 100.873 172.6459
1683.821118 100.928 172.4988
1696.022780 100.982 172.3414
1708.312860 101.036 172.1733
1720.692000 101.089 171.9937
1733.160843 101.142 171.8025
1745.720041 101.195 171.5992
1758.370248 101.247 171.3839
1771.112124 101.298 171.1566
1783.946332 101.348 170.9176
1796.873543 101.394 170.6671
1809.894429 101.438 170.4057
1823.009670 101.478 170.1340
1836.219950 101.514 169.8527
1849.525956 101.546 169.5626
1862.928384 101.573 169.2645
1876.427931 101.596 168.9595
1890.025301 101.614 168.6486
1903.721204 101.629 168.3330
1917.516352 101.639 168.0139
1931.411466 101.644 167.6924
1945.407270 101.646 167.3699
1959.504493 101.642 167.0477
1973.703870 101.632 166.7274
1988.006142 101.616 166.4102
2002.412054 101.593 166.0976
2016.922357 101.561 165.7912
2031.537808 101.519 165.4923
2046.259169 101.468 165.2023
2061.087206 101.407 164.9225
2076.022694 101.334 164.6541
2091.066410 101.251 164.3981
2106.219139 101.158 164.1559
2121.481671 101.056 163.9285
2136.854802 100.944 163.7172
2152.339333 100.826 163.5231
2167.936071 100.701 163.3473
2183.645829 100.571 163.1906
2199.469427 100.439 163.0538
2215.407689 100.305 162.9371
2231.461446 100.170 162.8403
2247.631536 100.036 162.7632
2263.918800 99.904 162.7051
2280.324089 99.775 162.6653
2296.848258 99.647 162.6429
2313.492167 99.523 162.6375
2330.256685 99.401 162.6484
2347.142685 99.282 162.6757
2364.151049 99.164 162.7195
2381.282662 99.049 162.7804
2398.538418 98.935 162.8593
2415.919216 98.822 162.9572
2433.425962 98.711 163.0754
2451.059570 98.601 163.2155
2468.820958 98.493 163.3786
2486.711052 98.386 163.5662
2504.730786 98.282 163.7795
2522.881098 98.181 164.0194
2541.162934 98.084 164.2869
2559.577248 97.992 164.5822
2578.125000 97.907 164.9057
2596.807157 97.830 165.2571
2615.624692 97.763 165.6357
2634.578586 97.706 166.0403
2653.669829 97.662 166.4690
2672.899414 97.632 166.9194
2692.268345 97.616 167.3883
2711.777632 97.615 167.8723
2731.428290 97.629 168.3672
2751.221345 97.657 168.8691
2771.157829 97.697 169.3741
2791.238781 97.748 169.8789
2811.465248 97.807 170.3809
2831.838284 97.871 170.8785
2852.358952 97.939 171.3712
2873.028321 98.008 171.8589
2893.847468 98.076 172.3424
2914.817480 98.140 172.8229
2935.939449 98.199 173.3013
2957.214476 98.251 173.7784
2978.643672 98.296 174.2550
3000.228152 98.333 174.7310
3021.969041 98.361 175.2065
3043.867475 98.381 175.6810
3065.924593 98.393 176.1540
3088.141547 98.398 176.6251
3110.519493 98.395 177.0936
3133.059600 98.386 177.5593
3155.763041 98.372 178.0219
3178.631001 98.353 178.4811
3201.664672 98.330 178.9374
3224.865254 98.303 179.3911
3248.233957 98.273 179.8431
3271.771999 98.241 -179.7050
3295.480608 98.207 -179.2512
3319.361019 98.170 -178.7928
3343.414477 98.132 -178.3264
3367.642236 98.092 -177.8483
3392.045560 98.051 -177.3543
3416.625721 98.010 -176.8402
3441.383999 97.969 -176.3015
3466.321686 97.928 -175.7337
3491.440082 97.890 -175.1327
3516.740496 97.855 -174.4949
3542.224247 97.825 -173.8172
3567.892664 97.802 -173.0976
3593.747085 97.788 -172.3353
3619.788858 97.784 -171.5303
3646.019340 97.792 -170.6844
3672.439900 97.813 -169.8003
3699.051913 97.850 -168.8821
3725.856768 97.902 -167.9353
3752.855862 97.971 -166.9668
3780.050603 98.058 -165.9846
3807.442408 98.162 -164.9981
3835.032705 98.283 -164.0174
3862.822933 98.420 -163.0539
3890.814540 98.574 -162.1192
3919.008986 98.742 -161.2253
3947.407741 98.922 -160.3836
3976.012284 99.114 -159.6045
4004.824108 99.314 -158.8964
4033.844715 99.522 -158.2656
4063.075616 99.735 -157.7160
4092.518337 99.951 -157.2491
4122.174412 100.169 -156.8644
4152.045387 100.388 -156.5602
4182.132820 100.607 -156.3334
4212.438278 100.824 -156.1810
4242.963342 101.040 -156.1000
4273.709604 101.253 -156.0882
4304.678665 101.463 -156.1449
4335.872141 101.670 -156.2705
4367.291658 101.872 -156.4670
4398.938854 102.070 -156.7372
4430.815378 102.261 -157.0847
4462.922893 102.445 -157.5125
4495.263072 102.620 -158.0235
4527.837601 102.785 -158.6195
4560.648179 102.938 -159.3008
4593.696515 103.077 -160.0664
4626.984334 103.201 -160.9138
4660.513370 103.310 -161.8386
4694.285371 103.402 -162.8350
4728.302098 103.476 -163.8955
4762.565324 103.533 -165.0112
4797.076835 103.571 -166.1719
4831.838432 103.591 -167.3667
4866.851925 103.593 -168.5839
4902.119140 103.577 -169.8113
4937.641916 103.544 -171.0368
4973.422105 103.495 -172.2482
5009.461572 103.431 -173.4335
5045.762195 103.352 -174.5811
5082.325868 103.260 -175.6800
5119.154496 103.157 -176.7198
5156.250000 103.043 -177.6910
5193.614313 102.920 -178.5851
5231.249383 102.790 -179.3947
5269.157173 102.655 179.8859
5307.339658 102.515 179.2607
5345.798829 102.374 178.7320
5384.536691 102.233 178.2996
5423.555263 102.093 177.9608
5462.856580 101.958 177.7110
5502.442691 101.828 177.5429
5542.315659 101.707 177.4473
5582.477563 101.595 177.4135
5622.930497 101.494 177.4290
5663.676569 101.407 177.4810
5704.717904 101.334 177.5561
5746.056642 101.277 177.6412
5787.694937 101.237 177.7234
5829.634960 101.213 177.7906
5871.878898 101.207 177.8315
5914.428953 101.217 177.8355
5957.287343 101.243 177.7929
6000.456303 101.283 177.6948
6043.938083 101.335 177.5329
6087.734950 101.397 177.3000
6131.849187 101.464 176.9894
6176.283094 101.535 176.5959
6221.038987 101.605 176.1151
6266.119200 101.670 175.5439
6311.526083 101.729 174.8810
6357.262002 101.776 174.1267
6403.329344 101.810 173.2833
6449.730508 101.827 172.3549
6496.467914 101.825 171.3478
6543.543998 101.802 170.2702
6590.961215 101.758 169.1321
6638.722037 101.691 167.9452
6686.828954 101.602 166.7218
6735.284473 101.490 165.4749
6784.091120 101.358 164.2167
6833.251441 101.206 162.9587
6882.767998 101.037 161.7104
6932.643372 100.852 160.4793
6982.880164 100.655 159.2707
7033.480992 100.447 158.0874
7084.448495 100.231 156.9303
7135.785329 100.008 155.7984
7187.494171 99.781 154.6892
7239.577717 99.551 153.5989
7292.038681 99.318 152.5230
7344.879799 99.083 151.4559
7398.103826 98.847 150.3907
7451.713536 98.610 149.3189
7505.711724 98.371 148.2298
7560.101205 98.130 147.1090
7614.884815 97.888 145.9384
7670.065409 97.644 144.6951
7725.645865 97.398 143.3523
7781.629080 97.148 141.8792
7838.017972 96.894 140.2433
7894.815481 96.632 138.4120
7952.024569 96.359 136.3551
8009.648217 96.073 134.0459
8067.689429 95.769 131.4628
8126.151233 95.443 128.5891
8185.036674 95.091 125.4131
8244.348824 94.710 121.9270
8304.090774 94.298 118.1248
8364.265639 93.851 113.9974
8424.876556 93.372 109.5218
8485.926684 92.864 104.6331
8547.419207 92.332 99.1525
8609.357330 91.787 92.5480
8671.744282 91.243 82.8373
8734.583316 90.716 56.5765
8797.877707 90.226 -49.6495
8861.630756 89.791 -78.6119
8925.845785 89.427 -88.0693
8990.526143 89.144 -93.8738
9055.675202 88.946 -98.2712
9121.296357 88.832 -101.9004
9187.393031 88.792 -105.0236
9253.968668 88.814 -107.7817
9321.026740 88.885 -110.2689
9388.570742 88.989 -112.5582
9456.604196 89.112 -114.7113
9525.130648 89.242 -116.7814
9594.153671 89.367 -118.8143
9663.676863 89.477 -120.8475
9733.703850 89.565 -122.9110
9804.238280 89.623 -125.0261
9875.283832 89.645 -127.2055
9946.844210 89.628 -129.4536
10018.923143 89.566 -131.7662
10091.524390 89.457 -134.1312
10164.651736 89.298 -136.5289
10238.308993 89.086 -138.9326
10312.500000 88.822 -141.3103
10387.228626 88.505 -143.6250
10462.498767 88.135 -145.8372
10538.314345 87.713 -147.9061
10614.679315 87.243 -149.7914
10691.597657 86.727 -151.4548
10769.073381 86.168 -152.8620
10847.110526 85.570 -153.9830
10925.713161 84.938 -154.7944
11004.885382 84.276 -155.2799
11084.631318 83.588 -155.4325
11164.955126 82.881 -155.2560
11245.860993 82.157 -154.7666
11327.353138 81.422 -153.9948
11409.435808 80.681 -152.9854
11492.113283 79.936 -151.7974
11575.389873 79.193 -150.5023
11659.269920 78.454 -149.1816
11743.757796 77.723 -147.9241
11828.857906 77.005 -146.8243
11914.574686 76.303 -145.9822
12000.912606 75.622 -145.5045
12087.876166 74.972 -145.5101
12175.469900 74.361 -146.1372
12263.698373 73.803 -147.5566
12352.566187 73.317 -149.9922
12442.077974 72.926 -153.7532
12532.238400 72.657 -159.2795
12623.052165 72.535 -167.1864
12714.524005 72.581 -178.2170
12806.658687 72.800 167.1473
12899.461015 73.182 149.6420
12992.935827 73.701 131.7299
13087.087996 74.323 115.9736
13181.922430 75.009 103.2546
13277.444074 75.727 93.1406
13373.657907 76.447 84.8766
13470.568945 77.148 77.8287
13568.182241 77.814 71.5529
13666.502883 78.431 65.7571
13765.535996 78.991 60.2551
13865.286744 79.487 54.9327
13965.760328 79.915 49.7240
14066.961984 80.270 44.5956
14168.896989 80.552 39.5363
14271.570658 80.758 34.5496
14374.988342 80.889 29.6496
14479.155433 80.944 24.8583
14584.077362 80.925 20.2046
14689.759598 80.831 15.7245
14796.207652 80.664 11.4611
14903.427072 80.426 7.4656
15011.423448 80.122 3.7990
15120.202410 79.755 0.5338
15229.769630 79.333 -2.2434
15340.130819 78.865 -4.4290
15451.291730 78.365 -5.9036
15563.258160 77.853 -6.5397
15676.035944 77.351 -6.2256
15789.630962 76.890 -4.9171
15904.049137 76.502 -2.7118
16019.296433 76.215 0.0848
16135.378859 76.046 2.9740
16252.302465 75.991 5.3977
16370.073348 76.030 6.9208
16488.697648 76.128 7.3340
16608.181548 76.248 6.6381
16728.531278 76.356 4.9653
16849.753112 76.425 2.5043
16971.853368 76.438 -0.5463
17094.838414 76.384 -4.0009
17218.714660 76.259 -7.6944
17343.488565 76.066 -11.4838
17469.166632 75.810 -15.2494
17595.755415 75.506 -18.8997
17723.261512 75.171 -22.3793
17851.691571 74.829 -25.6815
17981.052287 74.509 -28.8586
18111.350404 74.238 -32.0255
18242.592715 74.038 -35.3454
18374.786062 73.918 -39.0018
18507.937336 73.876 -43.1630
18642.053479 73.894 -47.9542
18777.141484 73.950 -53.4421
18913.208391 74.020 -59.6293
19050.261296 74.082 -66.4492
19188.307342 74.123 -73.7534
19327.353727 74.134 -81.2941
19467.407699 74.114 -88.7095
19608.476560 74.070 -95.5361
19750.567664 74.016 -101.2580
19893.688419 73.967 -105.3882
20037.846286 73.939 -107.5532
