* Measurement data measured by REW V5.31.3
* Source: EXCL: Headset (USB-C to 3.5mm Headphone Jack Adapter), MICROPHONE (Master Volume), 0, volume: 0.170
* Format: 256k Log Swept Sine, 1 sweep at -12.0 dBFS with no timing reference
* Dated: Feb 9, 2025 1:40:27 PM
* REW Settings:
*  C-weighting compensation: Off
*  Target level: 75.0 dB
* Note: ; 
* Measurement: Ouroboros (Golem Mod) L3
* Smoothing: 1/6 octave
* Frequency Step: 96 ppo
* Start Frequency: 20.0 Hz
*
* Freq(Hz) SPL(dB) Phase(degrees)
20.141602 106.554 -115.1028
20.287556 106.554 -115.3744
20.434568 106.551 -115.7408
20.582645 106.543 -116.1940
20.731796 106.528 -116.7248
20.882027 106.502 -117.3229
21.033346 106.463 -117.9774
21.185763 106.411 -118.6770
21.339284 106.344 -119.4106
21.493917 106.263 -120.1669
21.649671 106.169 -120.9353
21.806553 106.062 -121.7058
21.964572 105.945 -122.4694
22.123737 105.821 -123.2184
22.284054 105.691 -123.9460
22.445534 105.560 -124.6475
22.608183 105.428 -125.3194
22.772012 105.300 -125.9599
22.937027 105.178 -126.5688
23.103238 105.064 -127.1471
23.270654 104.960 -127.6972
23.439282 104.869 -128.2222
23.609133 104.791 -128.7259
23.780215 104.727 -129.2123
23.952536 104.679 -129.6855
24.126106 104.646 -130.1493
24.300934 104.627 -130.6067
24.477028 104.622 -131.0601
24.654399 104.628 -131.5113
24.833055 104.644 -131.9609
25.013005 104.666 -132.4092
25.194260 104.693 -132.8558
25.376828 104.721 -133.3001
25.560719 104.748 -133.7415
25.745942 104.771 -134.1799
25.932508 104.789 -134.6155
26.120426 104.798 -135.0497
26.309705 104.799 -135.4843
26.500356 104.791 -135.9222
26.692388 104.773 -136.3670
26.885812 104.744 -136.8227
27.080638 104.707 -137.2932
27.276876 104.661 -137.7819
27.474535 104.608 -138.2915
27.673627 104.551 -138.8231
27.874161 104.491 -139.3759
28.076149 104.432 -139.9471
28.279600 104.377 -140.5319
28.484526 104.330 -141.1232
28.690937 104.293 -141.7123
28.898843 104.271 -142.2896
29.108256 104.265 -142.8447
29.319186 104.277 -143.3680
29.531645 104.307 -143.8507
29.745644 104.355 -144.2863
29.961193 104.417 -144.6706
30.178304 104.491 -145.0026
30.396989 104.571 -145.2844
30.617258 104.652 -145.5212
30.839123 104.729 -145.7212
31.062596 104.797 -145.8951
31.287688 104.850 -146.0552
31.514412 104.885 -146.2151
31.742778 104.897 -146.3883
31.972800 104.884 -146.5873
32.204488 104.845 -146.8225
32.437855 104.779 -147.1012
32.672913 104.686 -147.4268
32.909674 104.568 -147.7978
33.148151 104.428 -148.2084
33.388356 104.269 -148.6481
33.630302 104.093 -149.1028
33.874001 103.906 -149.5564
34.119466 103.711 -149.9922
34.366710 103.512 -150.3944
34.615745 103.312 -150.7498
34.866585 103.114 -151.0491
35.119243 102.920 -151.2871
35.373731 102.732 -151.4636
35.630064 102.551 -151.5826
35.888254 102.379 -151.6525
36.148315 102.216 -151.6853
36.410261 102.065 -151.6954
36.674104 101.927 -151.6989
36.939860 101.805 -151.7118
37.207542 101.702 -151.7487
37.477163 101.622 -151.8205
37.748738 101.567 -151.9338
38.022281 101.540 -152.0890
38.297806 101.542 -152.2812
38.575327 101.574 -152.5007
38.854860 101.635 -152.7352
39.136419 101.726 -152.9715
39.420017 101.842 -153.1984
39.705671 101.981 -153.4076
39.993395 102.140 -153.5950
40.283203 102.316 -153.7602
40.575112 102.505 -153.9067
40.869136 102.704 -154.0400
41.165290 102.913 -154.1671
41.463591 103.129 -154.2953
41.764053 103.351 -154.4309
42.066693 103.577 -154.5791
42.371525 103.807 -154.7429
42.678567 104.037 -154.9229
42.987834 104.266 -155.1174
43.299341 104.492 -155.3229
43.613106 104.712 -155.5350
43.929145 104.922 -155.7491
44.247473 105.121 -155.9615
44.568109 105.307 -156.1696
44.891068 105.478 -156.3730
45.216367 105.633 -156.5724
45.544023 105.770 -156.7698
45.874054 105.890 -156.9677
46.206476 105.992 -157.1684
46.541307 106.076 -157.3732
46.878565 106.141 -157.5825
47.218266 106.189 -157.7957
47.560429 106.221 -158.0114
47.905072 106.236 -158.2281
48.252212 106.238 -158.4446
48.601867 106.226 -158.6601
48.954056 106.204 -158.8744
49.308798 106.172 -159.0872
49.666109 106.133 -159.2986
50.026010 106.089 -159.5080
50.388520 106.041 -159.7150
50.753656 105.991 -159.9183
51.121437 105.941 -160.1165
51.491884 105.892 -160.3079
51.865016 105.845 -160.4905
52.240851 105.802 -160.6629
52.619410 105.764 -160.8241
53.000712 105.731 -160.9743
53.384777 105.703 -161.1141
53.771625 105.680 -161.2445
54.161276 105.661 -161.3664
54.553751 105.646 -161.4809
54.949070 105.633 -161.5896
55.347254 105.621 -161.6942
55.748323 105.611 -161.7967
56.152298 105.600 -161.8989
56.559201 105.589 -162.0019
56.969052 105.577 -162.1059
57.381873 105.564 -162.2112
57.797686 105.550 -162.3187
58.216512 105.535 -162.4298
58.638373 105.519 -162.5463
59.063291 105.503 -162.6702
59.491288 105.487 -162.8029
59.922386 105.472 -162.9453
60.356608 105.457 -163.0982
60.793977 105.443 -163.2624
61.234515 105.431 -163.4387
61.678246 105.421 -163.6276
62.125192 105.414 -163.8295
62.575377 105.409 -164.0450
63.028824 105.407 -164.2752
63.485557 105.408 -164.5215
63.945599 105.412 -164.7858
64.408975 105.419 -165.0697
64.875709 105.430 -165.3742
65.345825 105.444 -165.6999
65.819348 105.461 -166.0468
66.296302 105.481 -166.4146
66.776713 105.505 -166.8035
67.260604 105.531 -167.2131
67.748002 105.560 -167.6432
68.238932 105.591 -168.0931
68.733420 105.624 -168.5617
69.231490 105.659 -169.0480
69.733170 105.695 -169.5514
70.238485 105.731 -170.0714
70.747463 105.768 -170.6079
71.260128 105.805 -171.1609
71.776508 105.842 -171.7300
72.296630 105.879 -172.3147
72.820521 105.915 -172.9139
73.348209 105.951 -173.5268
73.879720 105.985 -174.1526
74.415083 106.019 -174.7910
74.954326 106.050 -175.4416
75.497475 106.079 -176.1040
76.044561 106.105 -176.7776
76.595612 106.127 -177.4608
77.150655 106.144 -178.1521
77.709720 106.156 -178.8491
78.272837 106.163 -179.5499
78.840034 106.165 179.7473
79.411342 106.160 179.0442
79.986789 106.149 178.3417
80.566406 106.133 177.6407
81.150224 106.110 176.9421
81.738272 106.081 176.2468
82.330581 106.048 175.5555
82.927182 106.010 174.8690
83.528107 105.969 174.1876
84.133386 105.928 173.5109
84.743051 105.888 172.8381
85.357134 105.852 172.1678
85.975667 105.823 171.4989
86.598682 105.804 170.8297
87.226212 105.800 170.1595
87.858289 105.811 169.4879
88.494946 105.842 168.8149
89.136217 105.893 168.1415
89.782135 105.966 167.4690
90.432733 106.060 166.7986
91.088046 106.173 166.1316
91.748108 106.302 165.4692
92.412952 106.444 164.8122
93.082615 106.592 164.1613
93.757130 106.743 163.5168
94.436533 106.891 162.8793
95.120859 107.030 162.2494
95.810144 107.158 161.6279
96.504423 107.271 161.0157
97.203734 107.366 160.4136
97.908112 107.442 159.8225
98.617595 107.500 159.2431
99.332219 107.540 158.6758
100.052021 107.563 158.1209
100.777039 107.571 157.5784
101.507311 107.567 157.0482
102.242875 107.551 156.5297
102.983769 107.527 156.0224
103.730032 107.496 155.5256
104.481702 107.458 155.0388
105.238820 107.414 154.5615
106.001424 107.363 154.0931
106.769554 107.305 153.6334
107.543250 107.238 153.1819
108.322553 107.161 152.7387
109.107503 107.071 152.3040
109.898141 106.969 151.8782
110.694508 106.852 151.4620
111.496646 106.721 151.0560
112.304596 106.575 150.6607
113.118402 106.416 150.2764
113.938104 106.244 149.9031
114.763747 106.062 149.5406
115.595372 105.871 149.1887
116.433024 105.675 148.8471
117.276746 105.474 148.5161
118.126581 105.271 148.1959
118.982575 105.068 147.8872
119.844772 104.866 147.5915
120.713217 104.665 147.3101
121.587954 104.466 147.0452
122.469031 104.269 146.7986
123.356492 104.073 146.5723
124.250384 103.876 146.3677
125.150753 103.678 146.1857
126.057647 103.476 146.0263
126.971113 103.270 145.8890
127.891198 103.058 145.7728
128.817950 102.839 145.6765
129.751418 102.613 145.5988
130.691651 102.379 145.5392
131.638696 102.139 145.4971
132.592604 101.893 145.4728
133.553425 101.644 145.4667
134.521208 101.393 145.4797
135.496004 101.144 145.5126
136.477864 100.900 145.5663
137.466839 100.665 145.6418
138.462981 100.442 145.7398
139.466340 100.234 145.8615
140.476971 100.043 146.0083
141.494925 99.872 146.1815
142.520256 99.721 146.3822
143.553016 99.588 146.6117
144.593260 99.473 146.8708
145.641043 99.371 147.1602
146.696418 99.280 147.4799
147.759441 99.195 147.8302
148.830166 99.113 148.2104
149.908651 99.031 148.6199
150.994951 98.946 149.0571
152.089123 98.857 149.5205
153.191223 98.764 150.0083
154.301310 98.667 150.5187
155.419441 98.567 151.0497
156.545674 98.466 151.5995
157.680069 98.367 152.1668
158.822683 98.270 152.7502
159.973578 98.178 153.3488
161.132813 98.091 153.9617
162.300447 98.011 154.5883
163.476543 97.939 155.2276
164.661162 97.874 155.8788
165.854364 97.818 156.5409
167.056213 97.770 157.2128
168.266772 97.730 157.8938
169.486102 97.698 158.5833
170.714268 97.676 159.2811
171.951334 97.662 159.9869
173.197364 97.658 160.7010
174.452424 97.663 161.4233
175.716578 97.678 162.1537
176.989893 97.702 162.8915
178.272434 97.735 163.6355
179.564270 97.776 164.3831
180.865467 97.825 165.1309
182.176092 97.880 165.8740
183.496216 97.941 166.6064
184.825905 98.006 167.3214
186.165229 98.076 168.0117
187.514259 98.148 168.6706
188.873065 98.224 169.2922
190.241717 98.302 169.8719
191.620287 98.382 170.4068
193.008847 98.464 170.8953
194.407468 98.547 171.3376
195.816225 98.631 171.7350
197.235190 98.716 172.0895
198.664438 98.799 172.4037
200.104042 98.882 172.6808
201.554078 98.963 172.9235
203.014622 99.041 173.1349
204.485750 99.116 173.3178
205.967538 99.186 173.4749
207.460064 99.253 173.6086
208.963405 99.314 173.7211
210.477640 99.370 173.8141
212.002848 99.422 173.8890
213.539108 99.470 173.9471
215.086500 99.513 173.9892
216.645105 99.552 174.0161
218.215005 99.588 174.0283
219.796281 99.620 174.0267
221.389015 99.648 174.0121
222.993292 99.672 173.9854
224.609193 99.690 173.9474
226.236804 99.703 173.8993
227.876209 99.710 173.8422
229.527494 99.710 173.7771
231.190745 99.704 173.7053
232.866048 99.690 173.6277
234.553491 99.671 173.5453
236.253163 99.645 173.4589
237.965150 99.615 173.3693
239.689544 99.580 173.2766
241.426433 99.543 173.1811
243.175909 99.504 173.0828
244.938062 99.464 172.9814
246.712984 99.424 172.8771
248.500768 99.386 172.7699
250.301507 99.349 172.6599
252.115295 99.315 172.5472
253.942226 99.284 172.4323
255.782396 99.257 172.3154
257.635901 99.234 172.1966
259.502837 99.217 172.0761
261.383301 99.205 171.9540
263.277392 99.198 171.8303
265.185209 99.197 171.7047
267.106850 99.201 171.5770
269.042417 99.211 171.4469
270.992009 99.225 171.3141
272.955729 99.243 171.1785
274.933678 99.265 171.0402
276.925961 99.289 170.8998
278.932681 99.315 170.7578
280.953942 99.343 170.6151
282.989850 99.372 170.4727
285.040511 99.402 170.3316
287.106032 99.434 170.1925
289.186521 99.468 170.0560
291.282086 99.505 169.9222
293.392836 99.546 169.7911
295.518881 99.592 169.6624
297.660333 99.643 169.5359
299.817302 99.699 169.4111
301.989902 99.758 169.2880
304.178245 99.820 169.1667
306.382446 99.883 169.0475
308.602620 99.946 168.9315
310.838882 100.006 168.8196
313.091348 100.062 168.7132
315.360137 100.112 168.6137
317.645367 100.155 168.5226
319.947156 100.190 168.4407
322.265625 100.217 168.3689
324.600895 100.233 168.3073
326.953086 100.239 168.2554
329.322323 100.234 168.2126
331.708729 100.219 168.1779
334.112427 100.194 168.1500
336.533543 100.158 168.1278
338.972204 100.112 168.1106
341.428536 100.058 168.0976
343.902668 99.996 168.0882
346.394729 99.928 168.0824
348.904848 99.855 168.0799
351.433156 99.779 168.0809
353.979786 99.703 168.0856
356.544869 99.629 168.0941
359.128540 99.560 168.1066
361.730934 99.498 168.1231
364.352185 99.448 168.1433
366.992431 99.411 168.1666
369.651810 99.389 168.1925
372.330459 99.386 168.2198
375.028519 99.401 168.2478
377.746130 99.434 168.2753
380.483434 99.486 168.3012
383.240574 99.555 168.3248
386.017693 99.637 168.3453
388.814937 99.732 168.3623
391.632450 99.836 168.3757
394.470380 99.946 168.3855
397.328875 100.060 168.3920
400.208084 100.175 168.3956
403.108157 100.289 168.3969
406.029245 100.402 168.3962
408.971500 100.512 168.3938
411.935076 100.620 168.3897
414.920127 100.725 168.3837
417.926810 100.828 168.3752
420.955280 100.931 168.3637
424.005695 101.033 168.3480
427.078215 101.135 168.3269
430.173000 101.238 168.2991
433.290211 101.343 168.2632
436.430010 101.448 168.2177
439.592562 101.554 168.1613
442.778031 101.658 168.0927
445.986583 101.761 168.0109
449.218386 101.859 167.9149
452.473607 101.951 167.8043
455.752418 102.036 167.6784
459.054987 102.113 167.5373
462.381489 102.179 167.3810
465.732096 102.234 167.2098
469.106983 102.277 167.0241
472.506325 102.309 166.8246
475.930301 102.330 166.6117
479.379088 102.340 166.3864
482.852867 102.341 166.1493
486.351817 102.333 165.9012
489.876123 102.317 165.6431
493.425968 102.294 165.3756
497.001536 102.265 165.0995
500.603014 102.231 164.8154
504.230589 102.190 164.5243
507.884452 102.145 164.2275
511.564792 102.094 163.9264
515.271802 102.038 163.6232
519.005673 101.977 163.3204
522.766602 101.912 163.0211
526.554785 101.844 162.7284
530.370418 101.775 162.4450
534.213700 101.707 162.1733
538.084833 101.642 161.9147
541.984018 101.583 161.6692
545.911457 101.530 161.4359
549.867357 101.486 161.2132
553.851922 101.450 160.9989
557.865362 101.422 160.7910
561.907884 101.402 160.5879
565.979700 101.386 160.3889
570.081022 101.374 160.1937
574.212064 101.362 160.0025
578.373042 101.350 159.8161
582.564171 101.334 159.6354
586.785671 101.314 159.4613
591.037762 101.288 159.2946
595.320665 101.255 159.1361
599.634604 101.215 158.9863
603.979804 101.167 158.8455
608.356491 101.112 158.7138
612.764893 101.049 158.5912
617.205240 100.979 158.4774
621.677763 100.905 158.3723
626.182696 100.826 158.2757
630.720274 100.744 158.1877
635.290733 100.662 158.1083
639.894312 100.582 158.0376
644.531250 100.504 157.9758
649.201789 100.432 157.9231
653.906173 100.366 157.8795
658.644647 100.307 157.8450
663.417457 100.255 157.8195
668.224854 100.211 157.8027
673.067086 100.174 157.7943
677.944408 100.142 157.7935
682.857073 100.113 157.7997
687.805336 100.087 157.8120
692.789457 100.062 157.8293
697.809695 100.035 157.8508
702.866312 100.007 157.8756
707.959571 99.975 157.9033
713.089738 99.940 157.9332
718.257080 99.901 157.9656
723.461867 99.858 158.0005
728.704370 99.811 158.0385
733.984862 99.760 158.0800
739.303619 99.707 158.1253
744.660918 99.652 158.1749
750.057038 99.595 158.2287
755.492260 99.538 158.2865
760.966869 99.480 158.3481
766.481148 99.422 158.4127
772.035387 99.364 158.4798
777.629873 99.304 158.5485
783.264900 99.243 158.6183
788.940760 99.180 158.6882
794.657750 99.113 158.7578
800.416168 99.041 158.8264
806.216313 98.965 158.8937
812.058489 98.883 158.9593
817.943000 98.796 159.0230
823.870152 98.702 159.0845
829.840255 98.603 159.1437
835.853619 98.499 159.2003
841.910559 98.391 159.2537
848.011390 98.279 159.3033
854.156430 98.166 159.3484
860.346000 98.051 159.3881
866.580422 97.936 159.4210
872.860020 97.823 159.4460
879.185124 97.711 159.4622
885.556062 97.602 159.4685
891.973166 97.497 159.4645
898.436771 97.396 159.4502
904.947215 97.299 159.4264
911.504835 97.209 159.3947
918.109975 97.124 159.3572
924.762978 97.046 159.3167
931.464192 96.974 159.2758
938.213966 96.909 159.2376
945.012651 96.850 159.2052
951.860602 96.796 159.1820
958.758176 96.748 159.1720
965.705733 96.703 159.1804
972.703635 96.662 159.2130
979.752246 96.623 159.2770
986.851935 96.587 159.3802
994.003071 96.553 159.5314
1001.206027 96.522 159.7393
1008.461179 96.496 160.0129
1015.768904 96.476 160.3604
1023.129584 96.466 160.7890
1030.543603 96.468 161.3040
1038.011347 96.487 161.9073
1045.533205 96.527 162.5970
1053.109569 96.591 163.3646
1060.740836 96.683 164.1946
1068.427401 96.803 165.0630
1076.169666 96.953 165.9374
1083.968035 97.131 166.7784
1091.822915 97.332 167.5429
1099.734713 97.550 168.1897
1107.703844 97.779 168.6846
1115.730723 98.009 169.0059
1123.815768 98.233 169.1466
1131.959400 98.444 169.1151
1140.162045 98.636 168.9322
1148.424129 98.807 168.6270
1156.746083 98.955 168.2328
1165.128342 99.079 167.7823
1173.571343 99.183 167.3052
1182.075524 99.268 166.8260
1190.641331 99.338 166.3636
1199.269209 99.395 165.9311
1207.959608 99.444 165.5368
1216.712981 99.487 165.1849
1225.529785 99.525 164.8763
1234.410479 99.562 164.6098
1243.355526 99.598 164.3823
1252.365393 99.633 164.1901
1261.440549 99.668 164.0284
1270.581467 99.702 163.8929
1279.788624 99.735 163.7787
1289.062500 99.768 163.6816
1298.403578 99.798 163.5977
1307.812346 99.827 163.5237
1317.289293 99.853 163.4569
1326.834914 99.878 163.3952
1336.449707 99.900 163.3372
1346.134173 99.919 163.2819
1355.888816 99.937 163.2288
1365.714145 99.952 163.1776
1375.610673 99.964 163.1277
1385.578915 99.974 163.0792
1395.619391 99.982 163.0315
1405.732624 99.987 162.9842
1415.919142 99.991 162.9370
1426.179476 99.993 162.8895
1436.514160 99.994 162.8414
1446.923734 99.995 162.7926
1457.408740 99.997 162.7430
1467.969724 100.000 162.6924
1478.607238 100.005 162.6412
1489.321836 100.012 162.5895
1500.114076 100.023 162.5374
1510.984521 100.037 162.4850
1521.933737 100.055 162.4324
1532.962297 100.075 162.3795
1544.070773 100.098 162.3262
1555.259747 100.124 162.2722
1566.529800 100.150 162.2172
1577.881521 100.178 162.1611
1589.315501 100.206 162.1038
1600.832336 100.233 162.0453
1612.432627 100.260 161.9856
1624.116978 100.286 161.9244
1635.886000 100.310 161.8617
1647.740304 100.334 161.7971
1659.680509 100.356 161.7302
1671.707238 100.378 161.6610
1683.821118 100.399 161.5892
1696.022780 100.419 161.5147
1708.312860 100.440 161.4377
1720.692000 100.459 161.3581
1733.160843 100.479 161.2761
1745.720041 100.498 161.1917
1758.370248 100.516 161.1052
1771.112124 100.533 161.0172
1783.946332 100.547 160.9281
1796.873543 100.559 160.8387
1809.894429 100.568 160.7500
1823.009670 100.573 160.6630
1836.219950 100.575 160.5788
1849.525956 100.572 160.4984
1862.928384 100.566 160.4230
1876.427931 100.557 160.3534
1890.025301 100.544 160.2905
1903.721204 100.529 160.2351
1917.516352 100.512 160.1878
1931.411466 100.493 160.1493
1945.407270 100.472 160.1202
1959.504493 100.448 160.1010
1973.703870 100.420 160.0920
1988.006142 100.388 160.0939
2002.412054 100.351 160.1068
2016.922357 100.307 160.1310
2031.537808 100.256 160.1668
2046.259169 100.196 160.2145
2061.087206 100.128 160.2747
2076.022694 100.050 160.3481
2091.066410 99.963 160.4359
2106.219139 99.867 160.5392
2121.481671 99.762 160.6594
2136.854802 99.651 160.7978
2152.339333 99.533 160.9555
2167.936071 99.411 161.1336
2183.645829 99.287 161.3327
2199.469427 99.161 161.5532
2215.407689 99.036 161.7950
2231.461446 98.912 162.0581
2247.631536 98.791 162.3419
2263.918800 98.674 162.6456
2280.324089 98.561 162.9686
2296.848258 98.453 163.3099
2313.492167 98.349 163.6691
2330.256685 98.249 164.0455
2347.142685 98.154 164.4386
2364.151049 98.062 164.8483
2381.282662 97.975 165.2745
2398.538418 97.891 165.7172
2415.919216 97.811 166.1763
2433.425962 97.735 166.6518
2451.059570 97.663 167.1436
2468.820958 97.596 167.6514
2486.711052 97.534 168.1749
2504.730786 97.478 168.7136
2522.881098 97.428 169.2668
2541.162934 97.386 169.8337
2559.577248 97.352 170.4135
2578.125000 97.327 171.0049
2596.807157 97.313 171.6068
2615.624692 97.311 172.2176
2634.578586 97.323 172.8355
2653.669829 97.348 173.4585
2672.899414 97.389 174.0840
2692.268345 97.445 174.7089
2711.777632 97.516 175.3298
2731.428290 97.602 175.9430
2751.221345 97.702 176.5446
2771.157829 97.814 177.1307
2791.238781 97.935 177.6980
2811.465248 98.063 178.2438
2831.838284 98.196 178.7659
2852.358952 98.330 179.2633
2873.028321 98.464 179.7359
2893.847468 98.594 -179.8156
2914.817480 98.719 -179.3895
2935.939449 98.836 -178.9836
2957.214476 98.944 -178.5950
2978.643672 99.043 -178.2207
3000.228152 99.131 -177.8574
3021.969041 99.209 -177.5023
3043.867475 99.277 -177.1527
3065.924593 99.335 -176.8064
3088.141547 99.385 -176.4617
3110.519493 99.426 -176.1172
3133.059600 99.461 -175.7720
3155.763041 99.489 -175.4250
3178.631001 99.512 -175.0759
3201.664672 99.531 -174.7239
3224.865254 99.547 -174.3685
3248.233957 99.560 -174.0091
3271.771999 99.572 -173.6452
3295.480608 99.582 -173.2763
3319.361019 99.591 -172.9016
3343.414477 99.600 -172.5204
3367.642236 99.609 -172.1317
3392.045560 99.619 -171.7343
3416.625721 99.631 -171.3265
3441.383999 99.644 -170.9062
3466.321686 99.659 -170.4715
3491.440082 99.679 -170.0201
3516.740496 99.703 -169.5506
3542.224247 99.733 -169.0618
3567.892664 99.770 -168.5539
3593.747085 99.816 -168.0280
3619.788858 99.872 -167.4861
3646.019340 99.939 -166.9316
3672.439900 100.018 -166.3685
3699.051913 100.108 -165.8018
3725.856768 100.211 -165.2369
3752.855862 100.326 -164.6791
3780.050603 100.453 -164.1340
3807.442408 100.592 -163.6060
3835.032705 100.740 -163.0993
3862.822933 100.898 -162.6169
3890.814540 101.065 -162.1609
3919.008986 101.239 -161.7329
3947.407741 101.419 -161.3342
3976.012284 101.605 -160.9659
4004.824108 101.797 -160.6293
4033.844715 101.993 -160.3259
4063.075616 102.194 -160.0579
4092.518337 102.399 -159.8276
4122.174412 102.607 -159.6381
4152.045387 102.819 -159.4925
4182.132820 103.033 -159.3944
4212.438278 103.250 -159.3472
4242.963342 103.468 -159.3546
4273.709604 103.688 -159.4200
4304.678665 103.907 -159.5468
4335.872141 104.125 -159.7385
4367.291658 104.341 -159.9985
4398.938854 104.554 -160.3300
4430.815378 104.763 -160.7363
4462.922893 104.967 -161.2208
4495.263072 105.164 -161.7867
4527.837601 105.354 -162.4374
4560.648179 105.536 -163.1761
4593.696515 105.708 -164.0061
4626.984334 105.870 -164.9303
4660.513370 106.021 -165.9506
4694.285371 106.160 -167.0679
4728.302098 106.284 -168.2814
4762.565324 106.394 -169.5882
4797.076835 106.488 -170.9829
4831.838432 106.564 -172.4574
4866.851925 106.621 -174.0008
4902.119140 106.657 -175.5998
4937.641916 106.673 -177.2390
4973.422105 106.666 -178.9008
5009.461572 106.638 179.4332
5045.762195 106.587 177.7823
5082.325868 106.515 176.1661
5119.154496 106.422 174.6035
5156.250000 106.309 173.1130
5193.614313 106.179 171.7116
5231.249383 106.033 170.4147
5269.157173 105.874 169.2359
5307.339658 105.703 168.1865
5345.798829 105.526 167.2753
5384.536691 105.343 166.5080
5423.555263 105.159 165.8873
5462.856580 104.978 165.4122
5502.442691 104.803 165.0778
5542.315659 104.639 164.8751
5582.477563 104.489 164.7913
5622.930497 104.357 164.8091
5663.676569 104.247 164.9077
5704.717904 104.162 165.0630
5746.056642 104.104 165.2483
5787.694937 104.076 165.4355
5829.634960 104.077 165.5962
5871.878898 104.107 165.7024
5914.428953 104.164 165.7283
5957.287343 104.245 165.6510
6000.456303 104.345 165.4511
6043.938083 104.459 165.1133
6087.734950 104.584 164.6266
6131.849187 104.712 163.9844
6176.283094 104.838 163.1842
6221.038987 104.958 162.2271
6266.119200 105.066 161.1177
6311.526083 105.156 159.8636
6357.262002 105.227 158.4745
6403.329344 105.272 156.9625
6449.730508 105.291 155.3413
6496.467914 105.279 153.6263
6543.543998 105.235 151.8340
6590.961215 105.158 149.9821
6638.722037 105.047 148.0893
6686.828954 104.900 146.1750
6735.284473 104.719 144.2595
6784.091120 104.503 142.3632
6833.251441 104.254 140.5067
6882.767998 103.973 138.7109
6932.643372 103.661 136.9961
6982.880164 103.320 135.3822
7033.480992 102.953 133.8882
7084.448495 102.562 132.5322
7135.785329 102.150 131.3311
7187.494171 101.721 130.3000
7239.577717 101.276 129.4527
7292.038681 100.819 128.8006
7344.879799 100.353 128.3528
7398.103826 99.882 128.1151
7451.713536 99.409 128.0895
7505.711724 98.936 128.2735
7560.101205 98.466 128.6584
7614.884815 98.004 129.2287
7670.065409 97.552 129.9605
7725.645865 97.113 130.8207
7781.629080 96.690 131.7669
7838.017972 96.285 132.7479
7894.815481 95.901 133.7061
7952.024569 95.539 134.5819
8009.648217 95.200 135.3199
8067.689429 94.881 135.8777
8126.151233 94.581 136.2361
8185.036674 94.295 136.4133
8244.348824 94.021 136.4824
8304.090774 93.758 136.6006
8364.265639 93.507 137.0643
8424.876556 93.277 138.4274
8485.926684 93.084 141.7838
8547.419207 92.949 149.4563
8609.357330 92.897 166.1396
8671.744282 92.946 -165.0971
8734.583316 93.108 -138.2884
8797.877707 93.376 -124.1064
8861.630756 93.732 -118.1022
8925.845785 94.148 -116.1096
8990.526143 94.598 -116.1616
9055.675202 95.057 -117.3361
9121.296357 95.505 -119.1637
9187.393031 95.929 -121.3852
9253.968668 96.319 -123.8480
9321.026740 96.671 -126.4573
9388.570742 96.980 -129.1531
9456.604196 97.246 -131.8963
9525.130648 97.467 -134.6625
9594.153671 97.644 -137.4366
9663.676863 97.776 -140.2099
9733.703850 97.865 -142.9774
9804.238280 97.909 -145.7358
9875.283832 97.909 -148.4816
9946.844210 97.865 -151.2096
10018.923143 97.778 -153.9119
10091.524390 97.647 -156.5775
10164.651736 97.473 -159.1918
10238.308993 97.258 -161.7375
10312.500000 97.003 -164.1950
10387.228626 96.710 -166.5434
10462.498767 96.383 -168.7621
10538.314345 96.024 -170.8319
10614.679315 95.636 -172.7361
10691.597657 95.224 -174.4616
10769.073381 94.792 -175.9995
10847.110526 94.343 -177.3454
10925.713161 93.881 -178.5000
11004.885382 93.409 -179.4689
11084.631318 92.929 179.7371
11164.955126 92.445 179.1018
11245.860993 91.958 178.6036
11327.353138 91.470 178.2152
11409.435808 90.983 177.9035
11492.113283 90.500 177.6296
11575.389873 90.024 177.3490
11659.269920 89.557 177.0116
11743.757796 89.101 176.5634
11828.857906 88.661 175.9468
11914.574686 88.238 175.1040
12000.912606 87.834 173.9781
12087.876166 87.448 172.5168
12175.469900 87.078 170.6729
12263.698373 86.720 168.4067
12352.566187 86.369 165.6840
12442.077974 86.017 162.4743
12532.238400 85.658 158.7433
12623.052165 85.287 154.4406
12714.524005 84.900 149.4730
12806.658687 84.498 143.6465
12899.461015 84.084 136.5226
12992.935827 83.667 126.9998
13087.087996 83.258 111.7899
13181.922430 82.872 79.4298
13277.444074 82.524 20.5576
13373.657907 82.227 -15.0938
13470.568945 81.989 -31.3113
13568.182241 81.812 -41.1385
13666.502883 81.689 -48.3951
13765.535996 81.612 -54.3712
13865.286744 81.566 -59.6063
13965.760328 81.535 -64.3625
14066.961984 81.503 -68.7797
14168.896989 81.455 -72.9329
14271.570658 81.379 -76.8572
14374.988342 81.262 -80.5583
14479.155433 81.098 -84.0176
14584.077362 80.879 -87.1939
14689.759598 80.604 -90.0260
14796.207652 80.274 -92.4342
14903.427072 79.893 -94.3256
15011.423448 79.474 -95.6022
15120.202410 79.032 -96.1767
15229.769630 78.592 -95.9973
15340.130819 78.184 -95.0825
15451.291730 77.840 -93.5569
15563.258160 77.591 -91.6690
15676.035944 77.456 -89.7643
15789.630962 77.438 -88.2123
15904.049137 77.525 -87.3195
16019.296433 77.687 -87.2740
16135.378859 77.893 -88.1422
16252.302465 78.110 -89.8979
16370.073348 78.311 -92.4628
16488.697648 78.476 -95.7372
16608.181548 78.590 -99.6199
16728.531278 78.641 -104.0159
16849.753112 78.623 -108.8390
16971.853368 78.530 -114.0104
17094.838414 78.359 -119.4568
17218.714660 78.109 -125.1106
17343.488565 77.783 -130.9101
17469.166632 77.384 -136.8025
17595.755415 76.923 -142.7457
17723.261512 76.412 -148.7088
17851.691571 75.869 -154.6698
17981.052287 75.317 -160.6088
18111.350404 74.784 -166.4935
18242.592715 74.301 -172.2542
18374.786062 73.902 -177.7303
18507.937336 73.614 177.4583
18642.053479 73.454 174.3181
18777.141484 73.421 176.3123
18913.208391 73.499 -157.6127
19050.261296 73.660 -87.4878
19188.307342 73.872 -70.0640
19327.353727 74.105 -69.0393
19467.407699 74.332 -71.4767
19608.476560 74.534 -74.6338
19750.567664 74.695 -77.5295
19893.688419 74.806 -79.6806
20037.846286 74.864 -80.8192
