* Measurement data measured by REW V5.31.3
* Source: EXCL: Headset (USB-C to 3.5mm Headphone Jack Adapter), MICROPHONE (Master Volume), 0, volume: 0.250
* Format: 256k Log Swept Sine, 1 sweep at -12.0 dBFS with no timing reference
* Dated: Feb 9, 2025 5:07:02 PM
* REW Settings:
*  C-weighting compensation: Off
*  Target level: 75.0 dB
* Note: ; 
* Measurement: Ouroboros (Golem Mod) R9
* Smoothing: 1/6 octave
* Frequency Step: 96 ppo
* Start Frequency: 20.0 Hz
*
* Freq(Hz) SPL(dB) Phase(degrees)
20.141602 104.184 -111.9622
20.287556 104.175 -112.1287
20.434568 104.161 -112.3579
20.582645 104.143 -112.6507
20.731796 104.119 -113.0083
20.882027 104.089 -113.4324
21.033346 104.051 -113.9238
21.185763 104.006 -114.4825
21.339284 103.952 -115.1066
21.493917 103.890 -115.7916
21.649671 103.820 -116.5305
21.806553 103.741 -117.3132
21.964572 103.654 -118.1276
22.123737 103.561 -118.9597
22.284054 103.461 -119.7951
22.445534 103.356 -120.6196
22.608183 103.248 -121.4206
22.772012 103.138 -122.1882
22.937027 103.030 -122.9157
23.103238 102.924 -123.6004
23.270654 102.825 -124.2436
23.439282 102.733 -124.8503
23.609133 102.651 -125.4283
23.780215 102.580 -125.9876
23.952536 102.521 -126.5388
24.126106 102.475 -127.0918
24.300934 102.440 -127.6553
24.477028 102.416 -128.2351
24.654399 102.401 -128.8344
24.833055 102.394 -129.4533
25.013005 102.391 -130.0895
25.194260 102.390 -130.7382
25.376828 102.391 -131.3935
25.560719 102.390 -132.0487
25.745942 102.385 -132.6969
25.932508 102.377 -133.3319
26.120426 102.363 -133.9486
26.309705 102.342 -134.5427
26.500356 102.315 -135.1115
26.692388 102.282 -135.6537
26.885812 102.242 -136.1692
27.080638 102.197 -136.6594
27.276876 102.147 -137.1268
27.474535 102.094 -137.5752
27.673627 102.041 -138.0094
27.874161 101.989 -138.4348
28.076149 101.941 -138.8575
28.279600 101.901 -139.2833
28.484526 101.871 -139.7179
28.690937 101.854 -140.1660
28.898843 101.853 -140.6312
29.108256 101.868 -141.1157
29.319186 101.901 -141.6202
29.531645 101.952 -142.1439
29.745644 102.018 -142.6848
29.961193 102.098 -143.2398
30.178304 102.188 -143.8050
30.396989 102.283 -144.3756
30.617258 102.379 -144.9467
30.839123 102.471 -145.5132
31.062596 102.555 -146.0699
31.287688 102.625 -146.6124
31.514412 102.677 -147.1364
31.742778 102.708 -147.6390
31.972800 102.715 -148.1182
32.204488 102.696 -148.5729
32.437855 102.649 -149.0034
32.672913 102.574 -149.4106
32.909674 102.471 -149.7958
33.148151 102.340 -150.1609
33.388356 102.183 -150.5076
33.630302 102.003 -150.8376
33.874001 101.803 -151.1528
34.119466 101.587 -151.4549
34.366710 101.358 -151.7456
34.615745 101.122 -152.0265
34.866585 100.883 -152.2990
35.119243 100.646 -152.5635
35.373731 100.416 -152.8196
35.630064 100.196 -153.0654
35.888254 99.991 -153.2976
36.148315 99.803 -153.5121
36.410261 99.635 -153.7044
36.674104 99.488 -153.8705
36.939860 99.365 -154.0080
37.207542 99.265 -154.1163
37.477163 99.189 -154.1977
37.748738 99.136 -154.2565
38.022281 99.108 -154.2992
38.297806 99.103 -154.3333
38.575327 99.121 -154.3663
38.854860 99.161 -154.4053
39.136419 99.222 -154.4556
39.420017 99.304 -154.5206
39.705671 99.405 -154.6016
39.993395 99.526 -154.6980
40.283203 99.665 -154.8072
40.575112 99.820 -154.9256
40.869136 99.990 -155.0487
41.165290 100.172 -155.1715
41.463591 100.364 -155.2895
41.764053 100.565 -155.3986
42.066693 100.770 -155.4958
42.371525 100.978 -155.5793
42.678567 101.186 -155.6482
42.987834 101.392 -155.7028
43.299341 101.593 -155.7440
43.613106 101.787 -155.7732
43.929145 101.974 -155.7922
44.247473 102.151 -155.8028
44.568109 102.316 -155.8072
44.891068 102.470 -155.8074
45.216367 102.611 -155.8054
45.544023 102.738 -155.8030
45.874054 102.850 -155.8018
46.206476 102.947 -155.8030
46.541307 103.029 -155.8072
46.878565 103.095 -155.8151
47.218266 103.145 -155.8267
47.560429 103.181 -155.8419
47.905072 103.202 -155.8602
48.252212 103.209 -155.8806
48.601867 103.203 -155.9019
48.954056 103.186 -155.9227
49.308798 103.159 -155.9415
49.666109 103.125 -155.9575
50.026010 103.085 -155.9701
50.388520 103.040 -155.9790
50.753656 102.995 -155.9841
51.121437 102.949 -155.9856
51.491884 102.905 -155.9835
51.865016 102.865 -155.9782
52.240851 102.830 -155.9704
52.619410 102.800 -155.9606
53.000712 102.776 -155.9494
53.384777 102.759 -155.9370
53.771625 102.747 -155.9232
54.161276 102.741 -155.9080
54.553751 102.739 -155.8912
54.949070 102.742 -155.8731
55.347254 102.747 -155.8540
55.748323 102.754 -155.8347
56.152298 102.763 -155.8161
56.559201 102.773 -155.7992
56.969052 102.782 -155.7857
57.381873 102.791 -155.7774
57.797686 102.799 -155.7766
58.216512 102.805 -155.7863
58.638373 102.809 -155.8097
59.063291 102.813 -155.8505
59.491288 102.816 -155.9119
59.922386 102.818 -155.9964
60.356608 102.821 -156.1057
60.793977 102.824 -156.2398
61.234515 102.829 -156.3979
61.678246 102.835 -156.5787
62.125192 102.843 -156.7806
62.575377 102.853 -157.0028
63.028824 102.865 -157.2450
63.485557 102.879 -157.5075
63.945599 102.897 -157.7904
64.408975 102.917 -158.0938
64.875709 102.941 -158.4166
65.345825 102.968 -158.7572
65.819348 102.999 -159.1137
66.296302 103.033 -159.4843
66.776713 103.070 -159.8680
67.260604 103.109 -160.2644
67.748002 103.152 -160.6740
68.238932 103.195 -161.0977
68.733420 103.240 -161.5366
69.231490 103.286 -161.9916
69.733170 103.331 -162.4631
70.238485 103.377 -162.9511
70.747463 103.422 -163.4551
71.260128 103.467 -163.9739
71.776508 103.511 -164.5065
72.296630 103.555 -165.0516
72.820521 103.598 -165.6078
73.348209 103.640 -166.1740
73.879720 103.682 -166.7494
74.415083 103.722 -167.3333
74.954326 103.761 -167.9258
75.497475 103.799 -168.5267
76.044561 103.835 -169.1365
76.595612 103.868 -169.7552
77.150655 103.898 -170.3830
77.709720 103.924 -171.0200
78.272837 103.947 -171.6659
78.840034 103.964 -172.3203
79.411342 103.976 -172.9824
79.986789 103.982 -173.6515
80.566406 103.983 -174.3265
81.150224 103.977 -175.0065
81.738272 103.965 -175.6905
82.330581 103.949 -176.3777
82.927182 103.928 -177.0676
83.528107 103.904 -177.7593
84.133386 103.879 -178.4523
84.743051 103.856 -179.1460
85.357134 103.836 -179.8396
85.975667 103.823 179.4677
86.598682 103.820 178.7763
87.226212 103.830 178.0871
87.858289 103.857 177.4005
88.494946 103.903 176.7171
89.136217 103.970 176.0373
89.782135 104.059 175.3615
90.432733 104.170 174.6899
91.088046 104.300 174.0226
91.748108 104.446 173.3595
92.412952 104.603 172.7008
93.082615 104.767 172.0466
93.757130 104.932 171.3973
94.436533 105.093 170.7534
95.120859 105.244 170.1156
95.810144 105.381 169.4844
96.504423 105.502 168.8604
97.203734 105.604 168.2436
97.908112 105.686 167.6340
98.617595 105.748 167.0316
99.332219 105.792 166.4362
100.052021 105.818 165.8478
100.777039 105.830 165.2668
101.507311 105.829 164.6934
102.242875 105.817 164.1282
102.983769 105.797 163.5719
103.730032 105.770 163.0254
104.481702 105.737 162.4894
105.238820 105.697 161.9649
106.001424 105.651 161.4526
106.769554 105.596 160.9533
107.543250 105.533 160.4677
108.322553 105.458 159.9963
109.107503 105.372 159.5396
109.898141 105.271 159.0977
110.694508 105.156 158.6707
111.496646 105.026 158.2585
112.304596 104.881 157.8607
113.118402 104.723 157.4771
113.938104 104.552 157.1073
114.763747 104.371 156.7516
115.595372 104.182 156.4103
116.433024 103.988 156.0839
117.276746 103.789 155.7733
118.126581 103.590 155.4794
118.982575 103.390 155.2034
119.844772 103.191 154.9460
120.713217 102.995 154.7077
121.587954 102.800 154.4885
122.469031 102.606 154.2883
123.356492 102.414 154.1069
124.250384 102.221 153.9442
125.150753 102.027 153.8001
126.057647 101.829 153.6751
126.971113 101.628 153.5693
127.891198 101.421 153.4831
128.817950 101.208 153.4167
129.751418 100.988 153.3705
130.691651 100.762 153.3448
131.638696 100.530 153.3403
132.592604 100.293 153.3575
133.553425 100.053 153.3973
134.521208 99.812 153.4602
135.496004 99.574 153.5468
136.477864 99.341 153.6575
137.466839 99.117 153.7926
138.462981 98.906 153.9520
139.466340 98.711 154.1358
140.476971 98.534 154.3438
141.494925 98.376 154.5760
142.520256 98.238 154.8324
143.553016 98.120 155.1133
144.593260 98.018 155.4195
145.641043 97.931 155.7513
146.696418 97.854 156.1094
147.759441 97.784 156.4938
148.830166 97.717 156.9045
149.908651 97.651 157.3408
150.994951 97.583 157.8017
152.089123 97.511 158.2859
153.191223 97.436 158.7920
154.301310 97.358 159.3181
155.419441 97.279 159.8624
156.545674 97.200 160.4229
157.680069 97.122 160.9973
158.822683 97.048 161.5836
159.973578 96.980 162.1796
161.132813 96.918 162.7831
162.300447 96.864 163.3922
163.476543 96.818 164.0050
164.661162 96.781 164.6196
165.854364 96.753 165.2345
167.056213 96.734 165.8479
168.266772 96.724 166.4579
169.486102 96.724 167.0626
170.714268 96.733 167.6599
171.951334 96.751 168.2478
173.197364 96.779 168.8243
174.452424 96.816 169.3877
175.716578 96.860 169.9361
176.989893 96.913 170.4680
178.272434 96.971 170.9819
179.564270 97.035 171.4764
180.865467 97.102 171.9507
182.176092 97.171 172.4040
183.496216 97.241 172.8357
184.825905 97.310 173.2456
186.165229 97.378 173.6335
187.514259 97.445 173.9996
188.873065 97.511 174.3437
190.241717 97.576 174.6662
191.620287 97.639 174.9673
193.008847 97.703 175.2472
194.407468 97.766 175.5063
195.816225 97.830 175.7449
197.235190 97.894 175.9633
198.664438 97.958 176.1617
200.104042 98.021 176.3404
201.554078 98.083 176.4996
203.014622 98.143 176.6395
204.485750 98.200 176.7603
205.967538 98.254 176.8622
207.460064 98.305 176.9459
208.963405 98.351 177.0119
210.477640 98.393 177.0612
212.002848 98.431 177.0949
213.539108 98.465 177.1140
215.086500 98.495 177.1197
216.645105 98.522 177.1130
218.215005 98.546 177.0947
219.796281 98.567 177.0655
221.389015 98.584 177.0261
222.993292 98.597 176.9769
224.609193 98.606 176.9185
226.236804 98.609 176.8517
227.876209 98.607 176.7770
229.527494 98.598 176.6953
231.190745 98.582 176.6074
232.866048 98.560 176.5140
234.553491 98.531 176.4160
236.253163 98.496 176.3138
237.965150 98.457 176.2080
239.689544 98.413 176.0994
241.426433 98.366 175.9883
243.175909 98.317 175.8755
244.938062 98.267 175.7615
246.712984 98.216 175.6472
248.500768 98.166 175.5333
250.301507 98.116 175.4206
252.115295 98.069 175.3102
253.942226 98.023 175.2032
255.782396 97.981 175.1007
257.635901 97.943 175.0037
259.502837 97.909 174.9132
261.383301 97.879 174.8300
263.277392 97.856 174.7544
265.185209 97.837 174.6869
267.106850 97.825 174.6273
269.042417 97.819 174.5753
270.992009 97.818 174.5305
272.955729 97.823 174.4926
274.933678 97.833 174.4607
276.925961 97.848 174.4344
278.932681 97.867 174.4129
280.953942 97.890 174.3958
282.989850 97.917 174.3820
285.040511 97.948 174.3708
287.106032 97.983 174.3608
289.186521 98.023 174.3509
291.282086 98.069 174.3394
293.392836 98.121 174.3249
295.518881 98.179 174.3058
297.660333 98.244 174.2807
299.817302 98.315 174.2484
301.989902 98.392 174.2079
304.178245 98.472 174.1584
306.382446 98.553 174.0994
308.602620 98.635 174.0308
310.838882 98.715 173.9526
313.091348 98.790 173.8650
315.360137 98.859 173.7683
317.645367 98.922 173.6632
319.947156 98.975 173.5502
322.265625 99.019 173.4303
324.600895 99.052 173.3043
326.953086 99.075 173.1735
329.322323 99.085 173.0390
331.708729 99.084 172.9023
334.112427 99.072 172.7648
336.533543 99.047 172.6278
338.972204 99.011 172.4929
341.428536 98.965 172.3611
343.902668 98.909 172.2336
346.394729 98.845 172.1112
348.904848 98.775 171.9943
351.433156 98.700 171.8831
353.979786 98.623 171.7775
356.544869 98.546 171.6773
359.128540 98.473 171.5821
361.730934 98.406 171.4915
364.352185 98.347 171.4054
366.992431 98.301 171.3235
369.651810 98.269 171.2461
372.330459 98.254 171.1735
375.028519 98.255 171.1059
377.746130 98.275 171.0439
380.483434 98.311 170.9877
383.240574 98.363 170.9374
386.017693 98.428 170.8928
388.814937 98.504 170.8537
391.632450 98.588 170.8195
394.470380 98.678 170.7896
397.328875 98.770 170.7630
400.208084 98.864 170.7391
403.108157 98.957 170.7173
406.029245 99.048 170.6967
408.971500 99.137 170.6771
411.935076 99.223 170.6583
414.920127 99.306 170.6400
417.926810 99.387 170.6223
420.955280 99.467 170.6053
424.005695 99.546 170.5891
427.078215 99.625 170.5737
430.173000 99.705 170.5593
433.290211 99.785 170.5456
436.430010 99.866 170.5326
439.592562 99.946 170.5200
442.778031 100.026 170.5075
445.986583 100.102 170.4946
449.218386 100.175 170.4807
452.473607 100.242 170.4654
455.752418 100.302 170.4481
459.054987 100.353 170.4281
462.381489 100.394 170.4050
465.732096 100.426 170.3783
469.106983 100.446 170.3475
472.506325 100.457 170.3123
475.930301 100.457 170.2726
479.379088 100.448 170.2281
482.852867 100.431 170.1790
486.351817 100.407 170.1254
489.876123 100.375 170.0679
493.425968 100.339 170.0070
497.001536 100.297 169.9437
500.603014 100.250 169.8790
504.230589 100.198 169.8145
507.884452 100.142 169.7518
511.564792 100.081 169.6929
515.271802 100.015 169.6401
519.005673 99.946 169.5958
522.766602 99.873 169.5624
526.554785 99.799 169.5424
530.370418 99.724 169.5377
534.213700 99.653 169.5500
538.084833 99.586 169.5799
541.984018 99.526 169.6272
545.911457 99.476 169.6906
549.867357 99.437 169.7676
553.851922 99.409 169.8552
557.865362 99.393 169.9498
561.907884 99.386 170.0479
565.979700 99.388 170.1462
570.081022 99.396 170.2419
574.212064 99.408 170.3329
578.373042 99.421 170.4176
582.564171 99.433 170.4950
586.785671 99.443 170.5645
591.037762 99.448 170.6259
595.320665 99.447 170.6788
599.634604 99.441 170.7236
603.979804 99.427 170.7603
608.356491 99.406 170.7892
612.764893 99.379 170.8107
617.205240 99.346 170.8254
621.677763 99.308 170.8339
626.182696 99.265 170.8368
630.720274 99.221 170.8350
635.290733 99.176 170.8289
639.894312 99.132 170.8194
644.531250 99.091 170.8068
649.201789 99.054 170.7916
653.906173 99.023 170.7741
658.644647 98.998 170.7549
663.417457 98.979 170.7344
668.224854 98.966 170.7136
673.067086 98.957 170.6937
677.944408 98.952 170.6759
682.857073 98.948 170.6619
687.805336 98.944 170.6532
692.789457 98.939 170.6514
697.809695 98.932 170.6578
702.866312 98.920 170.6736
707.959571 98.905 170.6995
713.089738 98.884 170.7362
718.257080 98.860 170.7839
723.461867 98.830 170.8427
728.704370 98.797 170.9124
733.984862 98.762 170.9922
739.303619 98.723 171.0815
744.660918 98.684 171.1792
750.057038 98.644 171.2837
755.492260 98.605 171.3933
760.966869 98.566 171.5062
766.481148 98.527 171.6202
772.035387 98.488 171.7333
777.629873 98.449 171.8432
783.264900 98.409 171.9481
788.940760 98.367 172.0464
794.657750 98.322 172.1370
800.416168 98.272 172.2190
806.216313 98.217 172.2922
812.058489 98.156 172.3568
817.943000 98.089 172.4132
823.870152 98.016 172.4622
829.840255 97.937 172.5048
835.853619 97.852 172.5419
841.910559 97.763 172.5745
848.011390 97.669 172.6035
854.156430 97.573 172.6295
860.346000 97.475 172.6532
866.580422 97.377 172.6747
872.860020 97.279 172.6937
879.185124 97.184 172.7098
885.556062 97.092 172.7221
891.973166 97.004 172.7291
898.436771 96.922 172.7291
904.947215 96.846 172.7201
911.504835 96.777 172.7000
918.109975 96.717 172.6668
924.762978 96.664 172.6194
931.464192 96.619 172.5576
938.213966 96.580 172.4831
945.012651 96.548 172.3994
951.860602 96.521 172.3120
958.758176 96.497 172.2284
965.705733 96.476 172.1574
972.703635 96.457 172.1081
979.752246 96.439 172.0892
986.851935 96.424 172.1084
994.003071 96.411 172.1718
1001.206027 96.400 172.2839
1008.461179 96.395 172.4483
1015.768904 96.395 172.6673
1023.129584 96.403 172.9426
1030.543603 96.421 173.2755
1038.011347 96.452 173.6667
1045.533205 96.497 174.1163
1053.109569 96.560 174.6222
1060.740836 96.643 175.1801
1068.427401 96.748 175.7811
1076.169666 96.875 176.4116
1083.968035 97.025 177.0512
1091.822915 97.195 177.6737
1099.734713 97.384 178.2477
1107.703844 97.585 178.7397
1115.730723 97.794 179.1183
1123.815768 98.003 179.3586
1131.959400 98.206 179.4471
1140.162045 98.396 179.3841
1148.424129 98.567 179.1839
1156.746083 98.717 178.8718
1165.128342 98.845 178.4797
1173.571343 98.951 178.0408
1182.075524 99.036 177.5862
1190.641331 99.105 177.1414
1199.269209 99.160 176.7262
1207.959608 99.205 176.3538
1216.712981 99.243 176.0318
1225.529785 99.278 175.7635
1234.410479 99.310 175.5483
1243.355526 99.341 175.3835
1252.365393 99.371 175.2644
1261.440549 99.402 175.1857
1270.581467 99.432 175.1419
1279.788624 99.462 175.1276
1289.062500 99.491 175.1380
1298.403578 99.518 175.1690
1307.812346 99.544 175.2174
1317.289293 99.568 175.2808
1326.834914 99.591 175.3574
1336.449707 99.614 175.4459
1346.134173 99.635 175.5449
1355.888816 99.656 175.6534
1365.714145 99.677 175.7701
1375.610673 99.699 175.8936
1385.578915 99.720 176.0221
1395.619391 99.741 176.1541
1405.732624 99.763 176.2878
1415.919142 99.786 176.4214
1426.179476 99.809 176.5532
1436.514160 99.833 176.6814
1446.923734 99.859 176.8044
1457.408740 99.888 176.9207
1467.969724 99.920 177.0286
1478.607238 99.955 177.1270
1489.321836 99.995 177.2145
1500.114076 100.038 177.2900
1510.984521 100.086 177.3527
1521.933737 100.139 177.4019
1532.962297 100.195 177.4372
1544.070773 100.254 177.4584
1555.259747 100.316 177.4658
1566.529800 100.381 177.4595
1577.881521 100.446 177.4402
1589.315501 100.511 177.4086
1600.832336 100.577 177.3654
1612.432627 100.642 177.3113
1624.116978 100.705 177.2466
1635.886000 100.768 177.1719
1647.740304 100.829 177.0872
1659.680509 100.889 176.9927
1671.707238 100.948 176.8882
1683.821118 101.006 176.7740
1696.022780 101.063 176.6501
1708.312860 101.119 176.5165
1720.692000 101.175 176.3737
1733.160843 101.229 176.2219
1745.720041 101.284 176.0615
1758.370248 101.337 175.8931
1771.112124 101.388 175.7172
1783.946332 101.438 175.5344
1796.873543 101.485 175.3455
1809.894429 101.529 175.1509
1823.009670 101.570 174.9516
1836.219950 101.607 174.7482
1849.525956 101.640 174.5414
1862.928384 101.669 174.3320
1876.427931 101.694 174.1205
1890.025301 101.715 173.9077
1903.721204 101.733 173.6942
1917.516352 101.748 173.4805
1931.411466 101.760 173.2673
1945.407270 101.769 173.0552
1959.504493 101.774 172.8452
1973.703870 101.775 172.6378
1988.006142 101.770 172.4340
2002.412054 101.760 172.2345
2016.922357 101.742 172.0403
2031.537808 101.716 171.8522
2046.259169 101.681 171.6709
2061.087206 101.637 171.4971
2076.022694 101.583 171.3315
2091.066410 101.520 171.1746
2106.219139 101.448 171.0269
2121.481671 101.367 170.8893
2136.854802 101.279 170.7622
2152.339333 101.185 170.6463
2167.936071 101.086 170.5422
2183.645829 100.983 170.4500
2199.469427 100.878 170.3700
2215.407689 100.773 170.3016
2231.461446 100.668 170.2444
2247.631536 100.564 170.1974
2263.918800 100.462 170.1597
2280.324089 100.362 170.1305
2296.848258 100.265 170.1090
2313.492167 100.170 170.0948
2330.256685 100.078 170.0879
2347.142685 99.988 170.0886
2364.151049 99.900 170.0977
2381.282662 99.813 170.1160
2398.538418 99.728 170.1451
2415.919216 99.644 170.1862
2433.425962 99.562 170.2408
2451.059570 99.481 170.3105
2468.820958 99.401 170.3965
2486.711052 99.324 170.5002
2504.730786 99.249 170.6224
2522.881098 99.178 170.7637
2541.162934 99.111 170.9247
2559.577248 99.050 171.1050
2578.125000 98.995 171.3043
2596.807157 98.949 171.5215
2615.624692 98.912 171.7549
2634.578586 98.886 172.0026
2653.669829 98.872 172.2617
2672.899414 98.871 172.5291
2692.268345 98.884 172.8010
2711.777632 98.910 173.0735
2731.428290 98.950 173.3428
2751.221345 99.002 173.6052
2771.157829 99.064 173.8572
2791.238781 99.134 174.0966
2811.465248 99.210 174.3217
2831.838284 99.289 174.5316
2852.358952 99.369 174.7266
2873.028321 99.447 174.9077
2893.847468 99.521 175.0764
2914.817480 99.588 175.2343
2935.939449 99.647 175.3833
2957.214476 99.697 175.5249
2978.643672 99.736 175.6607
3000.228152 99.765 175.7923
3021.969041 99.782 175.9210
3043.867475 99.788 176.0485
3065.924593 99.783 176.1767
3088.141547 99.767 176.3076
3110.519493 99.741 176.4437
3133.059600 99.705 176.5873
3155.763041 99.660 176.7411
3178.631001 99.607 176.9080
3201.664672 99.547 177.0903
3224.865254 99.480 177.2910
3248.233957 99.408 177.5126
3271.771999 99.330 177.7579
3295.480608 99.247 178.0300
3319.361019 99.161 178.3320
3343.414477 99.071 178.6676
3367.642236 98.979 179.0404
3392.045560 98.885 179.4542
3416.625721 98.791 179.9129
3441.383999 98.697 -179.5799
3466.321686 98.605 -179.0208
3491.440082 98.516 -178.4071
3516.740496 98.431 -177.7366
3542.224247 98.354 -177.0083
3567.892664 98.285 -176.2221
3593.747085 98.227 -175.3790
3619.788858 98.181 -174.4814
3646.019340 98.149 -173.5330
3672.439900 98.133 -172.5385
3699.051913 98.134 -171.5039
3725.856768 98.153 -170.4365
3752.855862 98.191 -169.3451
3780.050603 98.249 -168.2394
3807.442408 98.326 -167.1307
3835.032705 98.422 -166.0314
3862.822933 98.537 -164.9552
3890.814540 98.671 -163.9166
3919.008986 98.820 -162.9302
3947.407741 98.984 -162.0101
3976.012284 99.160 -161.1691
4004.824108 99.345 -160.4176
4033.844715 99.538 -159.7632
4063.075616 99.734 -159.2106
4092.518337 99.932 -158.7617
4122.174412 100.129 -158.4158
4152.045387 100.323 -158.1697
4182.132820 100.512 -158.0185
4212.438278 100.695 -157.9560
4242.963342 100.870 -157.9752
4273.709604 101.036 -158.0685
4304.678665 101.192 -158.2286
4335.872141 101.337 -158.4480
4367.291658 101.470 -158.7196
4398.938854 101.591 -159.0358
4430.815378 101.698 -159.3888
4462.922893 101.791 -159.7698
4495.263072 101.869 -160.1696
4527.837601 101.931 -160.5783
4560.648179 101.978 -160.9856
4593.696515 102.010 -161.3816
4626.984334 102.027 -161.7571
4660.513370 102.031 -162.1041
4694.285371 102.023 -162.4164
4728.302098 102.005 -162.6902
4762.565324 101.980 -162.9241
4797.076835 101.950 -163.1194
4831.838432 101.917 -163.2800
4866.851925 101.883 -163.4119
4902.119140 101.851 -163.5229
4937.641916 101.822 -163.6215
4973.422105 101.796 -163.7165
5009.461572 101.775 -163.8159
5045.762195 101.759 -163.9264
5082.325868 101.747 -164.0529
5119.154496 101.738 -164.1980
5156.250000 101.733 -164.3626
5193.614313 101.729 -164.5452
5231.249383 101.726 -164.7428
5269.157173 101.723 -164.9516
5307.339658 101.719 -165.1667
5345.798829 101.715 -165.3831
5384.536691 101.709 -165.5963
5423.555263 101.701 -165.8023
5462.856580 101.694 -165.9979
5502.442691 101.686 -166.1812
5542.315659 101.680 -166.3519
5582.477563 101.676 -166.5110
5622.930497 101.677 -166.6610
5663.676569 101.684 -166.8060
5704.717904 101.697 -166.9514
5746.056642 101.720 -167.1037
5787.694937 101.753 -167.2703
5829.634960 101.796 -167.4591
5871.878898 101.850 -167.6782
5914.428953 101.916 -167.9357
5957.287343 101.991 -168.2393
6000.456303 102.075 -168.5961
6043.938083 102.166 -169.0120
6087.734950 102.262 -169.4922
6131.849187 102.359 -170.0404
6176.283094 102.455 -170.6592
6221.038987 102.548 -171.3500
6266.119200 102.633 -172.1130
6311.526083 102.709 -172.9475
6357.262002 102.773 -173.8519
6403.329344 102.823 -174.8237
6449.730508 102.856 -175.8602
6496.467914 102.872 -176.9578
6543.543998 102.871 -178.1130
6590.961215 102.850 -179.3216
6638.722037 102.812 179.4208
6686.828954 102.755 178.1185
6735.284473 102.681 176.7764
6784.091120 102.591 175.3994
6833.251441 102.485 173.9925
6882.767998 102.366 172.5609
6932.643372 102.233 171.1099
6982.880164 102.090 169.6448
7033.480992 101.937 168.1707
7084.448495 101.776 166.6916
7135.785329 101.608 165.2106
7187.494171 101.435 163.7293
7239.577717 101.259 162.2469
7292.038681 101.082 160.7603
7344.879799 100.904 159.2635
7398.103826 100.727 157.7476
7451.713536 100.553 156.1996
7505.711724 100.384 154.6027
7560.101205 100.219 152.9351
7614.884815 100.062 151.1701
7670.065409 99.912 149.2757
7725.645865 99.770 147.2148
7781.629080 99.636 144.9459
7838.017972 99.510 142.4242
7894.815481 99.388 139.6035
7952.024569 99.268 136.4371
8009.648217 99.146 132.8799
8067.689429 99.016 128.8892
8126.151233 98.871 124.4240
8185.036674 98.704 119.4448
8244.348824 98.509 113.9108
8304.090774 98.278 107.7762
8364.265639 98.005 100.9848
8424.876556 97.687 93.4620
8485.926684 97.321 85.1075
8547.419207 96.910 75.7912
8609.357330 96.457 65.3639
8671.744282 95.971 53.7007
8734.583316 95.464 40.7946
8797.877707 94.949 26.8889
8861.630756 94.445 12.5533
8925.845785 93.970 -1.4336
8990.526143 93.542 -14.3731
9055.675202 93.178 -25.8752
9121.296357 92.888 -35.8743
9187.393031 92.679 -44.5081
9253.968668 92.549 -51.9937
9321.026740 92.489 -58.5548
9388.570742 92.489 -64.3906
9456.604196 92.532 -69.6682
9525.130648 92.605 -74.5242
9594.153671 92.692 -79.0697
9663.676863 92.782 -83.3947
9733.703850 92.863 -87.5713
9804.238280 92.926 -91.6566
9875.283832 92.961 -95.6934
9946.844210 92.963 -99.7119
10018.923143 92.924 -103.7294
10091.524390 92.838 -107.7509
10164.651736 92.702 -111.7699
10238.308993 92.511 -115.7694
10312.500000 92.262 -119.7239
10387.228626 91.953 -123.6016
10462.498767 91.586 -127.3674
10538.314345 91.160 -130.9861
10614.679315 90.677 -134.4253
10691.597657 90.142 -137.6573
10769.073381 89.557 -140.6615
10847.110526 88.928 -143.4247
10925.713161 88.258 -145.9434
11004.885382 87.552 -148.2235
11084.631318 86.815 -150.2825
11164.955126 86.052 -152.1498
11245.860993 85.267 -153.8672
11327.353138 84.465 -155.4891
11409.435808 83.650 -157.0815
11492.113283 82.825 -158.7209
11575.389873 81.995 -160.4920
11659.269920 81.162 -162.4861
11743.757796 80.332 -164.8003
11828.857906 79.510 -167.5370
11914.574686 78.704 -170.8038
12000.912606 77.929 -174.7118
12087.876166 77.203 -179.3666
12175.469900 76.555 175.1502
12263.698373 76.020 168.8169
12352.566187 75.637 161.7156
12442.077974 75.443 154.0646
12532.238400 75.456 146.1980
12623.052165 75.673 138.4835
12714.524005 76.065 131.2161
12806.658687 76.592 124.5538
12899.461015 77.209 118.5179
12992.935827 77.878 113.0385
13087.087996 78.567 108.0022
13181.922430 79.252 103.2892
13277.444074 79.918 98.7921
13373.657907 80.552 94.4239
13470.568945 81.146 90.1193
13568.182241 81.694 85.8323
13666.502883 82.191 81.5339
13765.535996 82.632 77.2079
13865.286744 83.016 72.8493
13965.760328 83.338 68.4621
14066.961984 83.597 64.0579
14168.896989 83.791 59.6555
14271.570658 83.916 55.2800
14374.988342 83.973 50.9628
14479.155433 83.960 46.7406
14584.077362 83.879 42.6544
14689.759598 83.729 38.7488
14796.207652 83.514 35.0707
14903.427072 83.236 31.6682
15011.423448 82.902 28.5889
15120.202410 82.516 25.8781
15229.769630 82.088 23.5744
15340.130819 81.627 21.7050
15451.291730 81.146 20.2778
15563.258160 80.660 19.2727
15676.035944 80.184 18.6349
15789.630962 79.735 18.2725
15904.049137 79.326 18.0631
16019.296433 78.966 17.8701
16135.378859 78.658 17.5636
16252.302465 78.396 17.0402
16370.073348 78.169 16.2344
16488.697648 77.964 15.1205
16608.181548 77.764 13.7071
16728.531278 77.557 12.0283
16849.753112 77.331 10.1347
16971.853368 77.079 8.0850
17094.838414 76.795 5.9380
17218.714660 76.482 3.7458
17343.488565 76.142 1.5486
17469.166632 75.782 -0.6290
17595.755415 75.413 -2.7787
17723.261512 75.047 -4.9090
17851.691571 74.696 -7.0439
17981.052287 74.378 -9.2234
18111.350404 74.106 -11.5037
18242.592715 73.894 -13.9557
18374.786062 73.750 -16.6609
18507.937336 73.676 -19.7032
18642.053479 73.664 -23.1577
18777.141484 73.698 -27.0759
18913.208391 73.760 -31.4706
19050.261296 73.826 -36.3000
19188.307342 73.879 -41.4534
19327.353727 73.904 -46.7424
19467.407699 73.896 -51.9020
19608.476560 73.861 -56.6108
19750.567664 73.811 -60.5280
19893.688419 73.764 -63.3406
20037.846286 73.735 -64.8110
