* Measurement data measured by REW V5.31.3
* Source: EXCL: Headset (USB-C to 3.5mm Headphone Jack Adapter), MICROPHONE (Master Volume), 0, volume: 0.250
* Format: 256k Log Swept Sine, 1 sweep at -12.0 dBFS with no timing reference
* Dated: Feb 9, 2025 5:05:30 PM
* REW Settings:
*  C-weighting compensation: Off
*  Target level: 75.0 dB
* Note: ; 
* Measurement: Ouroboros (Golem Mod) R3
* Smoothing: 1/6 octave
* Frequency Step: 96 ppo
* Start Frequency: 20.0 Hz
*
* Freq(Hz) SPL(dB) Phase(degrees)
20.141602 102.874 -104.7870
20.287556 102.855 -105.0329
20.434568 102.827 -105.3630
20.582645 102.790 -105.7677
20.731796 102.744 -106.2367
20.882027 102.689 -106.7597
21.033346 102.625 -107.3276
21.185763 102.552 -107.9324
21.339284 102.472 -108.5673
21.493917 102.387 -109.2272
21.649671 102.298 -109.9075
21.806553 102.208 -110.6046
21.964572 102.119 -111.3149
22.123737 102.031 -112.0347
22.284054 101.948 -112.7599
22.445534 101.870 -113.4861
22.608183 101.797 -114.2083
22.772012 101.732 -114.9215
22.937027 101.673 -115.6209
23.103238 101.621 -116.3022
23.270654 101.576 -116.9619
23.439282 101.537 -117.5980
23.609133 101.506 -118.2098
23.780215 101.481 -118.7985
23.952536 101.463 -119.3665
24.126106 101.451 -119.9177
24.300934 101.445 -120.4568
24.477028 101.443 -120.9887
24.654399 101.446 -121.5183
24.833055 101.453 -122.0498
25.013005 101.461 -122.5862
25.194260 101.470 -123.1294
25.376828 101.479 -123.6797
25.560719 101.486 -124.2367
25.745942 101.492 -124.7985
25.932508 101.495 -125.3634
26.120426 101.496 -125.9293
26.309705 101.494 -126.4946
26.500356 101.488 -127.0584
26.692388 101.480 -127.6206
26.885812 101.468 -128.1816
27.080638 101.453 -128.7424
27.276876 101.433 -129.3038
27.474535 101.410 -129.8664
27.673627 101.382 -130.4304
27.874161 101.351 -130.9952
28.076149 101.318 -131.5597
28.279600 101.285 -132.1226
28.484526 101.254 -132.6825
28.690937 101.228 -133.2387
28.898843 101.212 -133.7913
29.108256 101.207 -134.3413
29.319186 101.218 -134.8906
29.531645 101.246 -135.4420
29.745644 101.292 -135.9983
29.961193 101.355 -136.5618
30.178304 101.432 -137.1340
30.396989 101.521 -137.7149
30.617258 101.615 -138.3025
30.839123 101.710 -138.8938
31.062596 101.800 -139.4841
31.287688 101.881 -140.0683
31.514412 101.947 -140.6415
31.742778 101.995 -141.1991
31.972800 102.020 -141.7377
32.204488 102.021 -142.2548
32.437855 101.996 -142.7489
32.672913 101.944 -143.2190
32.909674 101.865 -143.6645
33.148151 101.759 -144.0847
33.388356 101.629 -144.4789
33.630302 101.476 -144.8465
33.874001 101.302 -145.1873
34.119466 101.113 -145.5017
34.366710 100.910 -145.7913
34.615745 100.697 -146.0583
34.866585 100.480 -146.3058
35.119243 100.261 -146.5372
35.373731 100.044 -146.7559
35.630064 99.834 -146.9651
35.888254 99.634 -147.1675
36.148315 99.449 -147.3656
36.410261 99.282 -147.5619
36.674104 99.136 -147.7589
36.939860 99.014 -147.9589
37.207542 98.919 -148.1638
37.477163 98.852 -148.3747
37.748738 98.812 -148.5912
38.022281 98.799 -148.8119
38.297806 98.812 -149.0342
38.575327 98.850 -149.2555
38.854860 98.910 -149.4733
39.136419 98.991 -149.6863
39.420017 99.091 -149.8939
39.705671 99.208 -150.0963
39.993395 99.343 -150.2937
40.283203 99.492 -150.4858
40.575112 99.656 -150.6718
40.869136 99.833 -150.8507
41.165290 100.023 -151.0218
41.463591 100.224 -151.1852
41.764053 100.435 -151.3428
42.066693 100.654 -151.4974
42.371525 100.878 -151.6525
42.678567 101.105 -151.8114
42.987834 101.331 -151.9767
43.299341 101.554 -152.1499
43.613106 101.770 -152.3317
43.929145 101.978 -152.5227
44.247473 102.176 -152.7232
44.568109 102.362 -152.9337
44.891068 102.533 -153.1552
45.216367 102.690 -153.3880
45.544023 102.830 -153.6324
45.874054 102.953 -153.8879
46.206476 103.057 -154.1537
46.541307 103.143 -154.4286
46.878565 103.209 -154.7116
47.218266 103.256 -155.0015
47.560429 103.285 -155.2972
47.905072 103.297 -155.5975
48.252212 103.293 -155.9010
48.601867 103.275 -156.2061
48.954056 103.246 -156.5111
49.308798 103.206 -156.8149
49.666109 103.160 -157.1161
50.026010 103.107 -157.4137
50.388520 103.050 -157.7065
50.753656 102.990 -157.9929
51.121437 102.929 -158.2711
51.491884 102.867 -158.5397
51.865016 102.806 -158.7975
52.240851 102.746 -159.0447
52.619410 102.689 -159.2822
53.000712 102.634 -159.5115
53.384777 102.582 -159.7341
53.771625 102.532 -159.9509
54.161276 102.485 -160.1616
54.553751 102.440 -160.3651
54.949070 102.396 -160.5592
55.347254 102.353 -160.7419
55.748323 102.311 -160.9112
56.152298 102.268 -161.0653
56.559201 102.224 -161.2034
56.969052 102.179 -161.3252
57.381873 102.133 -161.4316
57.797686 102.086 -161.5240
58.216512 102.036 -161.6048
58.638373 101.985 -161.6769
59.063291 101.933 -161.7430
59.491288 101.879 -161.8052
59.922386 101.823 -161.8645
60.356608 101.767 -161.9216
60.793977 101.711 -161.9763
61.234515 101.656 -162.0285
61.678246 101.602 -162.0784
62.125192 101.549 -162.1258
62.575377 101.500 -162.1706
63.028824 101.453 -162.2125
63.485557 101.411 -162.2514
63.945599 101.373 -162.2877
64.408975 101.341 -162.3225
64.875709 101.314 -162.3582
65.345825 101.294 -162.3980
65.819348 101.281 -162.4456
66.296302 101.275 -162.5045
66.776713 101.276 -162.5775
67.260604 101.284 -162.6662
67.748002 101.298 -162.7710
68.238932 101.318 -162.8917
68.733420 101.342 -163.0275
69.231490 101.370 -163.1776
69.733170 101.401 -163.3416
70.238485 101.434 -163.5191
70.747463 101.470 -163.7099
71.260128 101.507 -163.9136
71.776508 101.546 -164.1299
72.296630 101.586 -164.3586
72.820521 101.628 -164.6000
73.348209 101.672 -164.8550
73.879720 101.717 -165.1249
74.415083 101.762 -165.4114
74.954326 101.808 -165.7160
75.497475 101.854 -166.0398
76.044561 101.900 -166.3837
76.595612 101.943 -166.7474
77.150655 101.985 -167.1303
77.709720 102.024 -167.5312
78.272837 102.060 -167.9486
78.840034 102.091 -168.3809
79.411342 102.119 -168.8270
79.986789 102.141 -169.2859
80.566406 102.158 -169.7568
81.150224 102.171 -170.2391
81.738272 102.178 -170.7323
82.330581 102.181 -171.2360
82.927182 102.180 -171.7496
83.528107 102.177 -172.2726
84.133386 102.174 -172.8046
84.743051 102.172 -173.3450
85.357134 102.174 -173.8932
85.975667 102.184 -174.4484
86.598682 102.205 -175.0098
87.226212 102.240 -175.5766
87.858289 102.291 -176.1479
88.494946 102.362 -176.7228
89.136217 102.455 -177.3004
89.782135 102.568 -177.8802
90.432733 102.703 -178.4613
91.088046 102.855 -179.0431
91.748108 103.023 -179.6250
92.412952 103.201 179.7935
93.082615 103.385 179.2128
93.757130 103.569 178.6336
94.436533 103.748 178.0563
95.120859 103.916 177.4814
95.810144 104.071 176.9095
96.504423 104.210 176.3409
97.203734 104.329 175.7763
97.908112 104.429 175.2164
98.617595 104.510 174.6617
99.332219 104.573 174.1129
100.052021 104.618 173.5707
100.777039 104.649 173.0355
101.507311 104.668 172.5077
102.242875 104.676 171.9872
102.983769 104.675 171.4743
103.730032 104.668 170.9690
104.481702 104.653 170.4716
105.238820 104.633 169.9825
106.001424 104.606 169.5022
106.769554 104.570 169.0310
107.543250 104.525 168.5692
108.322553 104.469 168.1170
109.107503 104.401 167.6746
109.898141 104.318 167.2421
110.694508 104.220 166.8199
111.496646 104.107 166.4085
112.304596 103.979 166.0085
113.118402 103.837 165.6205
113.938104 103.682 165.2451
114.763747 103.517 164.8829
115.595372 103.343 164.5344
116.433024 103.164 164.2003
117.276746 102.980 163.8809
118.126581 102.795 163.5772
118.982575 102.609 163.2897
119.844772 102.425 163.0192
120.713217 102.242 162.7661
121.587954 102.062 162.5303
122.469031 101.883 162.3116
123.356492 101.705 162.1098
124.250384 101.527 161.9244
125.150753 101.347 161.7554
126.057647 101.164 161.6032
126.971113 100.977 161.4682
127.891198 100.785 161.3512
128.817950 100.586 161.2529
129.751418 100.379 161.1742
130.691651 100.166 161.1159
131.638696 99.946 161.0789
132.592604 99.721 161.0641
133.553425 99.492 161.0723
134.521208 99.263 161.1042
135.496004 99.036 161.1602
136.477864 98.815 161.2408
137.466839 98.603 161.3466
138.462981 98.403 161.4781
139.466340 98.219 161.6357
140.476971 98.054 161.8197
141.494925 97.907 162.0305
142.520256 97.780 162.2681
143.553016 97.672 162.5328
144.593260 97.581 162.8244
145.641043 97.503 163.1428
146.696418 97.436 163.4877
147.759441 97.375 163.8582
148.830166 97.317 164.2537
149.908651 97.259 164.6730
150.994951 97.200 165.1149
152.089123 97.137 165.5784
153.191223 97.071 166.0622
154.301310 97.002 166.5654
155.419441 96.932 167.0868
156.545674 96.862 167.6252
157.680069 96.794 168.1791
158.822683 96.730 168.7469
159.973578 96.671 169.3263
161.132813 96.619 169.9148
162.300447 96.574 170.5095
163.476543 96.539 171.1074
164.661162 96.512 171.7052
165.854364 96.494 172.3003
167.056213 96.486 172.8905
168.266772 96.488 173.4741
169.486102 96.499 174.0501
170.714268 96.519 174.6171
171.951334 96.548 175.1740
173.197364 96.587 175.7193
174.452424 96.634 176.2513
175.716578 96.690 176.7682
176.989893 96.752 177.2684
178.272434 96.821 177.7504
179.564270 96.894 178.2127
180.865467 96.971 178.6542
182.176092 97.049 179.0740
183.496216 97.128 179.4713
184.825905 97.207 179.8458
186.165229 97.285 -179.8030
187.514259 97.361 -179.4751
188.873065 97.437 -179.1707
190.241717 97.511 -178.8900
191.620287 97.585 -178.6331
193.008847 97.658 -178.4000
194.407468 97.731 -178.1905
195.816225 97.805 -178.0042
197.235190 97.878 -177.8405
198.664438 97.950 -177.6987
200.104042 98.021 -177.5776
201.554078 98.091 -177.4762
203.014622 98.159 -177.3934
204.485750 98.223 -177.3284
205.967538 98.284 -177.2805
207.460064 98.340 -177.2492
208.963405 98.392 -177.2342
210.477640 98.440 -177.2350
212.002848 98.484 -177.2513
213.539108 98.524 -177.2826
215.086500 98.560 -177.3281
216.645105 98.594 -177.3873
218.215005 98.624 -177.4591
219.796281 98.651 -177.5426
221.389015 98.674 -177.6369
222.993292 98.694 -177.7411
224.609193 98.709 -177.8545
226.236804 98.719 -177.9765
227.876209 98.722 -178.1063
229.527494 98.720 -178.2433
231.190745 98.710 -178.3866
232.866048 98.694 -178.5357
234.553491 98.671 -178.6897
236.253163 98.642 -178.8482
237.965150 98.607 -179.0106
239.689544 98.569 -179.1763
241.426433 98.526 -179.3448
243.175909 98.482 -179.5155
244.938062 98.436 -179.6879
246.712984 98.389 -179.8615
248.500768 98.343 179.9643
250.301507 98.298 179.7903
252.115295 98.254 179.6171
253.942226 98.213 179.4457
255.782396 98.175 179.2773
257.635901 98.141 179.1129
259.502837 98.111 178.9538
261.383301 98.086 178.8012
263.277392 98.067 178.6564
265.185209 98.053 178.5201
267.106850 98.045 178.3932
269.042417 98.042 178.2759
270.992009 98.045 178.1682
272.955729 98.053 178.0698
274.933678 98.066 177.9797
276.925961 98.082 177.8973
278.932681 98.103 177.8214
280.953942 98.126 177.7509
282.989850 98.153 177.6844
285.040511 98.184 177.6208
287.106032 98.218 177.5588
289.186521 98.257 177.4971
291.282086 98.301 177.4347
293.392836 98.351 177.3703
295.518881 98.407 177.3030
297.660333 98.471 177.2319
299.817302 98.540 177.1564
301.989902 98.614 177.0756
304.178245 98.693 176.9890
306.382446 98.773 176.8962
308.602620 98.853 176.7969
310.838882 98.931 176.6907
313.091348 99.005 176.5775
315.360137 99.074 176.4572
317.645367 99.135 176.3298
319.947156 99.188 176.1955
322.265625 99.232 176.0547
324.600895 99.265 175.9080
326.953086 99.288 175.7560
329.322323 99.300 175.5995
331.708729 99.300 175.4396
334.112427 99.289 175.2773
336.533543 99.267 175.1135
338.972204 99.233 174.9492
341.428536 99.190 174.7851
343.902668 99.137 174.6219
346.394729 99.075 174.4601
348.904848 99.008 174.3003
351.433156 98.935 174.1427
353.979786 98.860 173.9877
356.544869 98.786 173.8355
359.128540 98.714 173.6866
361.730934 98.647 173.5411
364.352185 98.589 173.3995
366.992431 98.543 173.2621
369.651810 98.510 173.1289
372.330459 98.493 173.0002
375.028519 98.493 172.8761
377.746130 98.510 172.7567
380.483434 98.543 172.6420
383.240574 98.592 172.5320
386.017693 98.654 172.4268
388.814937 98.727 172.3265
391.632450 98.807 172.2311
394.470380 98.893 172.1409
397.328875 98.981 172.0562
400.208084 99.069 171.9772
403.108157 99.156 171.9042
406.029245 99.241 171.8376
408.971500 99.322 171.7777
411.935076 99.400 171.7247
414.920127 99.474 171.6789
417.926810 99.545 171.6405
420.955280 99.615 171.6097
424.005695 99.683 171.5866
427.078215 99.751 171.5712
430.173000 99.820 171.5633
433.290211 99.889 171.5628
436.430010 99.959 171.5695
439.592562 100.029 171.5833
442.778031 100.099 171.6039
445.986583 100.167 171.6309
449.218386 100.231 171.6643
452.473607 100.290 171.7037
455.752418 100.343 171.7487
459.054987 100.389 171.7988
462.381489 100.425 171.8535
465.732096 100.453 171.9119
469.106983 100.471 171.9730
472.506325 100.480 172.0356
475.930301 100.480 172.0983
479.379088 100.473 172.1595
482.852867 100.459 172.2179
486.351817 100.440 172.2719
489.876123 100.416 172.3204
493.425968 100.389 172.3622
497.001536 100.359 172.3967
500.603014 100.327 172.4232
504.230589 100.292 172.4413
507.884452 100.254 172.4510
511.564792 100.214 172.4525
515.271802 100.172 172.4464
519.005673 100.128 172.4337
522.766602 100.082 172.4154
526.554785 100.036 172.3931
530.370418 99.992 172.3683
534.213700 99.950 172.3421
538.084833 99.915 172.3152
541.984018 99.886 172.2877
545.911457 99.866 172.2584
549.867357 99.857 172.2256
553.851922 99.857 172.1868
557.865362 99.866 172.1393
561.907884 99.884 172.0801
565.979700 99.907 172.0069
570.081022 99.934 171.9176
574.212064 99.962 171.8110
578.373042 99.988 171.6867
582.564171 100.011 171.5451
586.785671 100.028 171.3873
591.037762 100.038 171.2150
595.320665 100.039 171.0304
599.634604 100.031 170.8361
603.979804 100.013 170.6348
608.356491 99.985 170.4293
612.764893 99.948 170.2226
617.205240 99.901 170.0175
621.677763 99.847 169.8167
626.182696 99.787 169.6226
630.720274 99.722 169.4374
635.290733 99.654 169.2629
639.894312 99.585 169.1007
644.531250 99.518 168.9518
649.201789 99.454 168.8168
653.906173 99.395 168.6964
658.644647 99.341 168.5907
663.417457 99.294 168.4998
668.224854 99.253 168.4237
673.067086 99.217 168.3626
677.944408 99.185 168.3167
682.857073 99.155 168.2859
687.805336 99.127 168.2705
692.789457 99.098 168.2707
697.809695 99.068 168.2865
702.866312 99.035 168.3180
707.959571 98.999 168.3653
713.089738 98.959 168.4283
718.257080 98.915 168.5073
723.461867 98.867 168.6020
728.704370 98.816 168.7123
733.984862 98.762 168.8375
739.303619 98.707 168.9768
744.660918 98.651 169.1287
750.057038 98.596 169.2915
755.492260 98.541 169.4629
760.966869 98.488 169.6405
766.481148 98.437 169.8217
772.035387 98.387 170.0041
777.629873 98.338 170.1853
783.264900 98.290 170.3635
788.940760 98.240 170.5370
794.657750 98.189 170.7046
800.416168 98.134 170.8654
806.216313 98.075 171.0189
812.058489 98.011 171.1647
817.943000 97.942 171.3028
823.870152 97.867 171.4330
829.840255 97.786 171.5555
835.853619 97.700 171.6703
841.910559 97.610 171.7776
848.011390 97.516 171.8775
854.156430 97.421 171.9700
860.346000 97.324 172.0549
866.580422 97.227 172.1322
872.860020 97.132 172.2015
879.185124 97.040 172.2625
885.556062 96.951 172.3144
891.973166 96.866 172.3565
898.436771 96.788 172.3878
904.947215 96.716 172.4070
911.504835 96.650 172.4130
918.109975 96.593 172.4048
924.762978 96.543 172.3822
931.464192 96.500 172.3457
938.213966 96.463 172.2974
945.012651 96.433 172.2408
951.860602 96.407 172.1817
958.758176 96.386 172.1270
965.705733 96.367 172.0847
972.703635 96.351 172.0633
979.752246 96.336 172.0705
986.851935 96.325 172.1132
994.003071 96.316 172.1971
1001.206027 96.310 172.3262
1008.461179 96.309 172.5039
1015.768904 96.315 172.7326
1023.129584 96.328 173.0143
1030.543603 96.351 173.3508
1038.011347 96.386 173.7435
1045.533205 96.436 174.1929
1053.109569 96.503 174.6979
1060.740836 96.590 175.2546
1068.427401 96.698 175.8552
1076.169666 96.828 176.4860
1083.968035 96.980 177.1273
1091.822915 97.154 177.7530
1099.734713 97.345 178.3314
1107.703844 97.551 178.8284
1115.730723 97.764 179.2114
1123.815768 97.979 179.4543
1131.959400 98.187 179.5426
1140.162045 98.383 179.4757
1148.424129 98.561 179.2673
1156.746083 98.718 178.9425
1165.128342 98.852 178.5334
1173.571343 98.964 178.0731
1182.075524 99.055 177.5927
1190.641331 99.129 177.1179
1199.269209 99.189 176.6685
1207.959608 99.239 176.2577
1216.712981 99.280 175.8938
1225.529785 99.317 175.5803
1234.410479 99.351 175.3174
1243.355526 99.383 175.1031
1252.365393 99.414 174.9339
1261.440549 99.443 174.8052
1270.581467 99.472 174.7127
1279.788624 99.499 174.6519
1289.062500 99.524 174.6189
1298.403578 99.547 174.6105
1307.812346 99.568 174.6242
1317.289293 99.588 174.6582
1326.834914 99.606 174.7109
1336.449707 99.623 174.7813
1346.134173 99.639 174.8682
1355.888816 99.655 174.9701
1365.714145 99.672 175.0855
1375.610673 99.688 175.2126
1385.578915 99.705 175.3494
1395.619391 99.723 175.4936
1405.732624 99.742 175.6429
1415.919142 99.761 175.7947
1426.179476 99.782 175.9468
1436.514160 99.805 176.0965
1446.923734 99.830 176.2413
1457.408740 99.858 176.3788
1467.969724 99.890 176.5068
1478.607238 99.926 176.6232
1489.321836 99.968 176.7263
1500.114076 100.014 176.8150
1510.984521 100.064 176.8882
1521.933737 100.120 176.9454
1532.962297 100.180 176.9861
1544.070773 100.244 177.0104
1555.259747 100.310 177.0181
1566.529800 100.379 177.0098
1577.881521 100.448 176.9857
1589.315501 100.518 176.9465
1600.832336 100.588 176.8930
1612.432627 100.658 176.8258
1624.116978 100.726 176.7457
1635.886000 100.793 176.6533
1647.740304 100.858 176.5491
1659.680509 100.922 176.4336
1671.707238 100.984 176.3072
1683.821118 101.045 176.1701
1696.022780 101.105 176.0227
1708.312860 101.163 175.8650
1720.692000 101.221 175.6974
1733.160843 101.277 175.5201
1745.720041 101.333 175.3334
1758.370248 101.387 175.1378
1771.112124 101.440 174.9338
1783.946332 101.491 174.7222
1796.873543 101.539 174.5035
1809.894429 101.584 174.2787
1823.009670 101.625 174.0485
1836.219950 101.663 173.8139
1849.525956 101.697 173.5757
1862.928384 101.727 173.3348
1876.427931 101.753 173.0920
1890.025301 101.776 172.8481
1903.721204 101.795 172.6038
1917.516352 101.810 172.3597
1931.411466 101.822 172.1165
1945.407270 101.830 171.8746
1959.504493 101.834 171.6347
1973.703870 101.833 171.3972
1988.006142 101.827 171.1626
2002.412054 101.813 170.9317
2016.922357 101.793 170.7053
2031.537808 101.764 170.4840
2046.259169 101.726 170.2688
2061.087206 101.678 170.0604
2076.022694 101.621 169.8598
2091.066410 101.554 169.6678
2106.219139 101.477 169.4854
2121.481671 101.392 169.3133
2136.854802 101.299 169.1526
2152.339333 101.200 169.0043
2167.936071 101.095 168.8691
2183.645829 100.986 168.7476
2199.469427 100.874 168.6400
2215.407689 100.762 168.5460
2231.461446 100.650 168.4652
2247.631536 100.538 168.3969
2263.918800 100.429 168.3398
2280.324089 100.322 168.2933
2296.848258 100.217 168.2565
2313.492167 100.115 168.2290
2330.256685 100.016 168.2106
2347.142685 99.918 168.2020
2364.151049 99.823 168.2039
2381.282662 99.729 168.2180
2398.538418 99.636 168.2460
2415.919216 99.544 168.2899
2433.425962 99.453 168.3516
2451.059570 99.363 168.4334
2468.820958 99.274 168.5370
2486.711052 99.187 168.6641
2504.730786 99.103 168.8160
2522.881098 99.021 168.9938
2541.162934 98.943 169.1981
2559.577248 98.871 169.4292
2578.125000 98.805 169.6870
2596.807157 98.747 169.9711
2615.624692 98.699 170.2805
2634.578586 98.661 170.6137
2653.669829 98.637 170.9691
2672.899414 98.626 171.3439
2692.268345 98.630 171.7350
2711.777632 98.649 172.1385
2731.428290 98.684 172.5502
2751.221345 98.732 172.9651
2771.157829 98.793 173.3785
2791.238781 98.865 173.7859
2811.465248 98.945 174.1834
2831.838284 99.031 174.5681
2852.358952 99.121 174.9378
2873.028321 99.211 175.2914
2893.847468 99.299 175.6283
2914.817480 99.383 175.9483
2935.939449 99.461 176.2514
2957.214476 99.532 176.5377
2978.643672 99.595 176.8071
3000.228152 99.648 177.0601
3021.969041 99.691 177.2967
3043.867475 99.724 177.5177
3065.924593 99.747 177.7240
3088.141547 99.761 177.9169
3110.519493 99.764 178.0980
3133.059600 99.759 178.2693
3155.763041 99.745 178.4329
3178.631001 99.724 178.5910
3201.664672 99.695 178.7460
3224.865254 99.659 178.9006
3248.233957 99.618 179.0576
3271.771999 99.571 179.2202
3295.480608 99.519 179.3920
3319.361019 99.462 179.5773
3343.414477 99.400 179.7807
3367.642236 99.335 -179.9927
3392.045560 99.266 -179.7376
3416.625721 99.195 -179.4485
3441.383999 99.121 -179.1200
3466.321686 99.047 -178.7469
3491.440082 98.973 -178.3246
3516.740496 98.901 -177.8488
3542.224247 98.833 -177.3163
3567.892664 98.770 -176.7248
3593.747085 98.715 -176.0731
3619.788858 98.670 -175.3612
3646.019340 98.636 -174.5905
3672.439900 98.615 -173.7634
3699.051913 98.609 -172.8839
3725.856768 98.620 -171.9576
3752.855862 98.648 -170.9913
3780.050603 98.694 -169.9938
3807.442408 98.760 -168.9753
3835.032705 98.845 -167.9478
3862.822933 98.949 -166.9249
3890.814540 99.072 -165.9215
3919.008986 99.212 -164.9532
3947.407741 99.367 -164.0355
3976.012284 99.537 -163.1828
4004.824108 99.718 -162.4076
4033.844715 99.908 -161.7195
4063.075616 100.104 -161.1253
4092.518337 100.304 -160.6288
4122.174412 100.506 -160.2312
4152.045387 100.707 -159.9313
4182.132820 100.906 -159.7263
4212.438278 101.102 -159.6121
4242.963342 101.293 -159.5840
4273.709604 101.477 -159.6373
4304.678665 101.655 -159.7672
4335.872141 101.824 -159.9697
4367.291658 101.985 -160.2410
4398.938854 102.135 -160.5774
4430.815378 102.273 -160.9750
4462.922893 102.399 -161.4290
4495.263072 102.510 -161.9335
4527.837601 102.606 -162.4814
4560.648179 102.686 -163.0642
4593.696515 102.749 -163.6725
4626.984334 102.796 -164.2962
4660.513370 102.825 -164.9250
4694.285371 102.838 -165.5490
4728.302098 102.837 -166.1587
4762.565324 102.821 -166.7462
4797.076835 102.794 -167.3047
4831.838432 102.757 -167.8296
4866.851925 102.713 -168.3179
4902.119140 102.663 -168.7687
4937.641916 102.610 -169.1829
4973.422105 102.555 -169.5625
5009.461572 102.501 -169.9108
5045.762195 102.449 -170.2313
5082.325868 102.399 -170.5277
5119.154496 102.353 -170.8035
5156.250000 102.309 -171.0614
5193.614313 102.269 -171.3035
5231.249383 102.232 -171.5311
5269.157173 102.198 -171.7448
5307.339658 102.167 -171.9450
5345.798829 102.139 -172.1319
5384.536691 102.113 -172.3056
5423.555263 102.091 -172.4670
5462.856580 102.071 -172.6175
5502.442691 102.055 -172.7594
5542.315659 102.044 -172.8959
5582.477563 102.038 -173.0314
5622.930497 102.039 -173.1712
5663.676569 102.046 -173.3214
5704.717904 102.063 -173.4886
5746.056642 102.088 -173.6798
5787.694937 102.123 -173.9023
5829.634960 102.168 -174.1631
5871.878898 102.224 -174.4692
5914.428953 102.288 -174.8269
5957.287343 102.361 -175.2422
6000.456303 102.440 -175.7203
6043.938083 102.523 -176.2656
6087.734950 102.609 -176.8812
6131.849187 102.693 -177.5692
6176.283094 102.774 -178.3302
6221.038987 102.848 -179.1636
6266.119200 102.912 179.9330
6311.526083 102.963 178.9633
6357.262002 102.999 177.9321
6403.329344 103.018 176.8456
6449.730508 103.018 175.7108
6496.467914 102.998 174.5351
6543.543998 102.958 173.3261
6590.961215 102.898 172.0912
6638.722037 102.817 170.8374
6686.828954 102.718 169.5708
6735.284473 102.601 168.2967
6784.091120 102.468 167.0190
6833.251441 102.321 165.7409
6882.767998 102.161 164.4647
6932.643372 101.991 163.1916
6982.880164 101.811 161.9227
7033.480992 101.625 160.6585
7084.448495 101.433 159.3989
7135.785329 101.238 158.1432
7187.494171 101.040 156.8894
7239.577717 100.842 155.6340
7292.038681 100.645 154.3715
7344.879799 100.450 153.0936
7398.103826 100.259 151.7891
7451.713536 100.073 150.4431
7505.711724 99.891 149.0370
7560.101205 99.716 147.5475
7614.884815 99.547 145.9471
7670.065409 99.384 144.2033
7725.645865 99.227 142.2799
7781.629080 99.074 140.1367
7838.017972 98.924 137.7313
7894.815481 98.773 135.0206
7952.024569 98.619 131.9616
8009.648217 98.456 128.5128
8067.689429 98.279 124.6336
8126.151233 98.082 120.2835
8185.036674 97.860 115.4184
8244.348824 97.606 109.9852
8304.090774 97.315 103.9135
8364.265639 96.983 97.1000
8424.876556 96.606 89.3860
8485.926684 96.184 80.5216
8547.419207 95.719 70.1192
8609.357330 95.215 57.6208
8671.744282 94.680 42.3856
8734.583316 94.125 24.1514
8797.877707 93.565 3.9525
8861.630756 93.017 -15.7023
8925.845785 92.499 -32.5589
8990.526143 92.031 -45.9896
9055.675202 91.630 -56.4689
9121.296357 91.309 -64.7144
9187.393031 91.076 -71.3307
9253.968668 90.931 -76.7617
9321.026740 90.868 -81.3250
9388.570742 90.875 -85.2521
9456.604196 90.938 -88.7176
9525.130648 91.041 -91.8567
9594.153671 91.169 -94.7775
9663.676863 91.309 -97.5675
9733.703850 91.449 -100.2974
9804.238280 91.578 -103.0238
9875.283832 91.689 -105.7900
9946.844210 91.773 -108.6270
10018.923143 91.823 -111.5530
10091.524390 91.833 -114.5745
10164.651736 91.798 -117.6858
10238.308993 91.713 -120.8701
10312.500000 91.575 -124.1007
10387.228626 91.380 -127.3422
10462.498767 91.128 -130.5543
10538.314345 90.818 -133.6940
10614.679315 90.451 -136.7196
10691.597657 90.030 -139.5929
10769.073381 89.559 -142.2821
10847.110526 89.041 -144.7635
10925.713161 88.482 -147.0226
11004.885382 87.886 -149.0554
11084.631318 87.257 -150.8690
11164.955126 86.602 -152.4824
11245.860993 85.923 -153.9263
11327.353138 85.227 -155.2431
11409.435808 84.516 -156.4854
11492.113283 83.794 -157.7142
11575.389873 83.062 -158.9962
11659.269920 82.324 -160.4006
11743.757796 81.578 -161.9974
11828.857906 80.825 -163.8560
11914.574686 80.065 -166.0454
12000.912606 79.296 -168.6378
12087.876166 78.518 -171.7132
12175.469900 77.731 -175.3687
12263.698373 76.941 -179.7286
12352.566187 76.156 175.0470
12442.077974 75.393 168.7648
12532.238400 74.680 161.2354
12623.052165 74.056 152.3716
12714.524005 73.571 142.3511
12806.658687 73.274 131.7337
12899.461015 73.198 121.3405
12992.935827 73.351 111.8956
13087.087996 73.703 103.7412
13181.922430 74.205 96.8450
13277.444074 74.802 90.9720
13373.657907 75.447 85.8402
13470.568945 76.100 81.2013
13568.182241 76.737 76.8658
13666.502883 77.339 72.7012
13765.535996 77.895 68.6212
13865.286744 78.395 64.5736
13965.760328 78.836 60.5311
14066.961984 79.215 56.4838
14168.896989 79.528 52.4338
14271.570658 79.774 48.3923
14374.988342 79.952 44.3777
14479.155433 80.063 40.4137
14584.077362 80.106 36.5291
14689.759598 80.081 32.7576
14796.207652 79.990 29.1385
14903.427072 79.834 25.7181
15011.423448 79.616 22.5513
15120.202410 79.337 19.7042
15229.769630 79.004 17.2561
15340.130819 78.622 15.2996
15451.291730 78.202 13.9368
15563.258160 77.758 13.2667
15676.035944 77.311 13.3618
15789.630962 76.886 14.2286
15904.049137 76.510 15.7630
16019.296433 76.209 17.7238
16135.378859 75.998 19.7584
16252.302465 75.881 21.4878
16370.073348 75.844 22.6108
16488.697648 75.862 22.9650
16608.181548 75.905 22.5262
16728.531278 75.944 21.3688
16849.753112 75.958 19.6202
16971.853368 75.931 17.4263
17094.838414 75.855 14.9301
17218.714660 75.730 12.2580
17343.488565 75.562 9.5103
17469.166632 75.364 6.7525
17595.755415 75.156 4.0092
17723.261512 74.958 1.2622
17851.691571 74.791 -1.5446
17981.052287 74.674 -4.4927
18111.350404 74.619 -7.6750
18242.592715 74.631 -11.1830
18374.786062 74.706 -15.0984
18507.937336 74.835 -19.4900
18642.053479 75.004 -24.4091
18777.141484 75.196 -29.8831
18913.208391 75.392 -35.9037
19050.261296 75.575 -42.4089
19188.307342 75.730 -49.2626
19327.353727 75.850 -56.2362
19467.407699 75.930 -63.0026
19608.476560 75.973 -69.1570
19750.567664 75.989 -74.2636
19893.688419 75.989 -77.9222
20037.846286 75.986 -79.8315
