* Measurement data measured by REW V5.31.3
* Source: EXCL: Headset (USB-C to 3.5mm Headphone Jack Adapter), MICROPHONE (Master Volume), 0, volume: 0.250
* Format: 256k Log Swept Sine, 1 sweep at -12.0 dBFS with no timing reference
* Dated: Feb 9, 2025 5:06:17 PM
* REW Settings:
*  C-weighting compensation: Off
*  Target level: 75.0 dB
* Note: ; 
* Measurement: Ouroboros (Golem Mod) R6
* Smoothing: 1/6 octave
* Frequency Step: 96 ppo
* Start Frequency: 20.0 Hz
*
* Freq(Hz) SPL(dB) Phase(degrees)
20.141602 103.815 -111.4409
20.287556 103.827 -111.5631
20.434568 103.842 -111.7337
20.582645 103.855 -111.9563
20.731796 103.864 -112.2343
20.882027 103.865 -112.5698
21.033346 103.855 -112.9634
21.185763 103.833 -113.4140
21.339284 103.795 -113.9185
21.493917 103.741 -114.4724
21.649671 103.672 -115.0699
21.806553 103.588 -115.7048
21.964572 103.489 -116.3706
22.123737 103.379 -117.0609
22.284054 103.259 -117.7699
22.445534 103.132 -118.4922
22.608183 103.001 -119.2226
22.772012 102.868 -119.9566
22.937027 102.738 -120.6894
23.103238 102.611 -121.4165
23.270654 102.492 -122.1330
23.439282 102.383 -122.8342
23.609133 102.285 -123.5153
23.780215 102.201 -124.1725
23.952536 102.133 -124.8027
24.126106 102.081 -125.4044
24.300934 102.045 -125.9779
24.477028 102.024 -126.5257
24.654399 102.019 -127.0517
24.833055 102.026 -127.5617
25.013005 102.043 -128.0619
25.194260 102.066 -128.5589
25.376828 102.092 -129.0583
25.560719 102.118 -129.5645
25.745942 102.141 -130.0802
25.932508 102.158 -130.6062
26.120426 102.167 -131.1418
26.309705 102.168 -131.6849
26.500356 102.161 -132.2331
26.692388 102.146 -132.7840
26.885812 102.123 -133.3358
27.080638 102.096 -133.8878
27.276876 102.064 -134.4401
27.474535 102.030 -134.9938
27.673627 101.996 -135.5498
27.874161 101.962 -136.1086
28.076149 101.931 -136.6695
28.279600 101.903 -137.2304
28.484526 101.880 -137.7871
28.690937 101.864 -138.3341
28.898843 101.856 -138.8652
29.108256 101.857 -139.3740
29.319186 101.871 -139.8551
29.531645 101.897 -140.3050
29.745644 101.936 -140.7227
29.961193 101.990 -141.1098
30.178304 102.055 -141.4709
30.396989 102.130 -141.8125
30.617258 102.211 -142.1427
30.839123 102.294 -142.4695
31.062596 102.374 -142.8002
31.287688 102.445 -143.1404
31.514412 102.502 -143.4928
31.742778 102.540 -143.8576
31.972800 102.555 -144.2318
32.204488 102.543 -144.6101
32.437855 102.503 -144.9852
32.672913 102.433 -145.3490
32.909674 102.334 -145.6934
33.148151 102.206 -146.0112
33.388356 102.053 -146.2973
33.630302 101.877 -146.5492
33.874001 101.684 -146.7671
34.119466 101.477 -146.9546
34.366710 101.262 -147.1175
34.615745 101.043 -147.2633
34.866585 100.826 -147.4001
35.119243 100.613 -147.5356
35.373731 100.409 -147.6761
35.630064 100.216 -147.8261
35.888254 100.037 -147.9883
36.148315 99.874 -148.1639
36.410261 99.728 -148.3527
36.674104 99.600 -148.5540
36.939860 99.492 -148.7664
37.207542 99.405 -148.9883
37.477163 99.339 -149.2179
37.748738 99.296 -149.4526
38.022281 99.276 -149.6896
38.297806 99.278 -149.9256
38.575327 99.304 -150.1570
38.854860 99.353 -150.3806
39.136419 99.425 -150.5937
39.420017 99.518 -150.7943
39.705671 99.633 -150.9814
39.993395 99.767 -151.1552
40.283203 99.920 -151.3166
40.575112 100.090 -151.4681
40.869136 100.275 -151.6128
41.165290 100.474 -151.7549
41.463591 100.684 -151.8988
41.764053 100.904 -152.0490
42.066693 101.129 -152.2087
42.371525 101.359 -152.3803
42.678567 101.590 -152.5644
42.987834 101.820 -152.7603
43.299341 102.046 -152.9665
43.613106 102.265 -153.1814
43.929145 102.477 -153.4039
44.247473 102.678 -153.6333
44.568109 102.866 -153.8695
44.891068 103.039 -154.1121
45.216367 103.196 -154.3609
45.544023 103.336 -154.6148
45.874054 103.456 -154.8725
46.206476 103.558 -155.1325
46.541307 103.641 -155.3938
46.878565 103.705 -155.6555
47.218266 103.752 -155.9169
47.560429 103.781 -156.1775
47.905072 103.795 -156.4362
48.252212 103.793 -156.6911
48.601867 103.778 -156.9400
48.954056 103.750 -157.1802
49.308798 103.712 -157.4099
49.666109 103.664 -157.6281
50.026010 103.610 -157.8354
50.388520 103.551 -158.0337
50.753656 103.490 -158.2258
51.121437 103.429 -158.4144
51.491884 103.368 -158.6017
51.865016 103.310 -158.7883
52.240851 103.256 -158.9732
52.619410 103.207 -159.1546
53.000712 103.163 -159.3300
53.384777 103.123 -159.4969
53.771625 103.088 -159.6537
54.161276 103.057 -159.7998
54.553751 103.029 -159.9355
54.949070 103.002 -160.0618
55.347254 102.976 -160.1802
55.748323 102.950 -160.2920
56.152298 102.923 -160.3983
56.559201 102.895 -160.4998
56.969052 102.864 -160.5972
57.381873 102.832 -160.6906
57.797686 102.798 -160.7802
58.216512 102.762 -160.8657
58.638373 102.723 -160.9469
59.063291 102.683 -161.0229
59.491288 102.642 -161.0932
59.922386 102.600 -161.1575
60.356608 102.558 -161.2161
60.793977 102.517 -161.2703
61.234515 102.478 -161.3218
61.678246 102.442 -161.3729
62.125192 102.410 -161.4256
62.575377 102.382 -161.4820
63.028824 102.359 -161.5438
63.485557 102.340 -161.6126
63.945599 102.326 -161.6904
64.408975 102.317 -161.7787
64.875709 102.313 -161.8793
65.345825 102.313 -161.9930
65.819348 102.319 -162.1206
66.296302 102.329 -162.2621
66.776713 102.343 -162.4174
67.260604 102.362 -162.5863
67.748002 102.385 -162.7687
68.238932 102.413 -162.9647
68.733420 102.444 -163.1747
69.231490 102.479 -163.3993
69.733170 102.516 -163.6396
70.238485 102.556 -163.8971
70.747463 102.597 -164.1733
71.260128 102.640 -164.4699
71.776508 102.685 -164.7881
72.296630 102.730 -165.1286
72.820521 102.777 -165.4916
73.348209 102.824 -165.8767
73.879720 102.872 -166.2828
74.415083 102.920 -166.7087
74.954326 102.968 -167.1528
75.497475 103.016 -167.6134
76.044561 103.063 -168.0888
76.595612 103.108 -168.5775
77.150655 103.151 -169.0782
77.709720 103.190 -169.5901
78.272837 103.226 -170.1131
78.840034 103.257 -170.6473
79.411342 103.283 -171.1933
79.986789 103.303 -171.7515
80.566406 103.318 -172.3223
81.150224 103.327 -172.9057
81.738272 103.330 -173.5008
82.330581 103.329 -174.1066
82.927182 103.324 -174.7213
83.528107 103.316 -175.3435
84.133386 103.307 -175.9715
84.743051 103.300 -176.6043
85.357134 103.296 -177.2409
85.975667 103.298 -177.8807
86.598682 103.310 -178.5230
87.226212 103.336 -179.1673
87.858289 103.377 -179.8129
88.494946 103.438 179.5408
89.136217 103.519 178.8943
89.782135 103.621 178.2479
90.432733 103.744 177.6023
91.088046 103.885 176.9579
91.748108 104.041 176.3157
92.412952 104.208 175.6766
93.082615 104.382 175.0417
93.757130 104.555 174.4118
94.436533 104.725 173.7875
95.120859 104.884 173.1694
95.810144 105.031 172.5575
96.504423 105.161 171.9516
97.203734 105.273 171.3515
97.908112 105.365 170.7568
98.617595 105.439 170.1672
99.332219 105.493 169.5827
100.052021 105.531 169.0031
100.777039 105.554 168.4290
101.507311 105.565 167.8609
102.242875 105.564 167.2997
102.983769 105.555 166.7462
103.730032 105.538 166.2013
104.481702 105.515 165.6658
105.238820 105.486 165.1404
106.001424 105.449 164.6256
106.769554 105.405 164.1219
107.543250 105.352 163.6298
108.322553 105.287 163.1495
109.107503 105.210 162.6812
109.898141 105.120 162.2251
110.694508 105.014 161.7813
111.496646 104.894 161.3498
112.304596 104.759 160.9306
113.118402 104.610 160.5240
113.938104 104.448 160.1302
114.763747 104.276 159.7498
115.595372 104.096 159.3834
116.433024 103.909 159.0316
117.276746 103.718 158.6951
118.126581 103.525 158.3742
118.982575 103.331 158.0691
119.844772 103.139 157.7799
120.713217 102.947 157.5066
121.587954 102.757 157.2493
122.469031 102.568 157.0084
123.356492 102.380 156.7842
124.250384 102.192 156.5773
125.150753 102.002 156.3882
126.057647 101.810 156.2176
126.971113 101.613 156.0659
127.891198 101.411 155.9342
128.817950 101.202 155.8232
129.751418 100.987 155.7337
130.691651 100.764 155.6668
131.638696 100.535 155.6230
132.592604 100.301 155.6031
133.553425 100.063 155.6074
134.521208 99.824 155.6364
135.496004 99.587 155.6909
136.477864 99.355 155.7713
137.466839 99.132 155.8784
138.462981 98.922 156.0126
139.466340 98.727 156.1744
140.476971 98.550 156.3637
141.494925 98.393 156.5803
142.520256 98.255 156.8238
143.553016 98.137 157.0936
144.593260 98.035 157.3893
145.641043 97.948 157.7105
146.696418 97.871 158.0572
147.759441 97.801 158.4293
148.830166 97.734 158.8267
149.908651 97.668 159.2489
150.994951 97.599 159.6953
152.089123 97.528 160.1652
153.191223 97.454 160.6573
154.301310 97.377 161.1704
155.419441 97.299 161.7030
156.545674 97.221 162.2534
157.680069 97.146 162.8196
158.822683 97.074 163.3996
159.973578 97.008 163.9915
161.132813 96.948 164.5931
162.300447 96.897 165.2025
163.476543 96.854 165.8176
164.661162 96.820 166.4361
165.854364 96.795 167.0556
167.056213 96.780 167.6736
168.266772 96.774 168.2874
169.486102 96.777 168.8945
170.714268 96.790 169.4922
171.951334 96.813 170.0786
173.197364 96.845 170.6518
174.452424 96.886 171.2101
175.716578 96.935 171.7524
176.989893 96.992 172.2776
178.272434 97.056 172.7845
179.564270 97.124 173.2725
180.865467 97.196 173.7406
182.176092 97.269 174.1878
183.496216 97.343 174.6132
184.825905 97.416 175.0159
186.165229 97.488 175.3950
187.514259 97.559 175.7496
188.873065 97.628 176.0793
190.241717 97.696 176.3840
191.620287 97.763 176.6637
193.008847 97.830 176.9187
194.407468 97.897 177.1496
195.816225 97.964 177.3571
197.235190 98.032 177.5421
198.664438 98.099 177.7051
200.104042 98.166 177.8471
201.554078 98.231 177.9690
203.014622 98.295 178.0713
204.485750 98.356 178.1548
205.967538 98.414 178.2204
207.460064 98.468 178.2686
208.963405 98.517 178.3005
210.477640 98.562 178.3166
212.002848 98.603 178.3178
213.539108 98.639 178.3047
215.086500 98.672 178.2779
216.645105 98.702 178.2382
218.215005 98.728 178.1863
219.796281 98.750 178.1230
221.389015 98.769 178.0491
222.993292 98.784 177.9654
224.609193 98.793 177.8727
226.236804 98.798 177.7720
227.876209 98.796 177.6639
229.527494 98.787 177.5493
231.190745 98.772 177.4290
232.866048 98.749 177.3033
234.553491 98.720 177.1731
236.253163 98.685 177.0388
237.965150 98.644 176.9010
239.689544 98.599 176.7603
241.426433 98.551 176.6176
243.175909 98.500 176.4736
244.938062 98.447 176.3293
246.712984 98.394 176.1859
248.500768 98.341 176.0441
250.301507 98.290 175.9053
252.115295 98.240 175.7703
253.942226 98.192 175.6401
255.782396 98.148 175.5155
257.635901 98.108 175.3975
259.502837 98.072 175.2866
261.383301 98.041 175.1837
263.277392 98.015 175.0894
265.185209 97.995 175.0042
267.106850 97.981 174.9285
269.042417 97.973 174.8625
270.992009 97.971 174.8062
272.955729 97.974 174.7595
274.933678 97.982 174.7219
276.925961 97.995 174.6927
278.932681 98.011 174.6713
280.953942 98.032 174.6564
282.989850 98.057 174.6472
285.040511 98.085 174.6422
287.106032 98.118 174.6399
289.186521 98.156 174.6389
291.282086 98.200 174.6375
293.392836 98.250 174.6341
295.518881 98.307 174.6271
297.660333 98.371 174.6150
299.817302 98.442 174.5964
301.989902 98.519 174.5701
304.178245 98.599 174.5349
306.382446 98.682 174.4900
308.602620 98.765 174.4346
310.838882 98.846 174.3683
313.091348 98.924 174.2911
315.360137 98.995 174.2032
317.645367 99.060 174.1053
319.947156 99.116 173.9981
322.265625 99.163 173.8828
324.600895 99.199 173.7605
326.953086 99.225 173.6324
329.322323 99.239 173.4994
331.708729 99.241 173.3624
334.112427 99.232 173.2222
336.533543 99.211 173.0793
338.972204 99.178 172.9343
341.428536 99.136 172.7877
343.902668 99.084 172.6400
346.394729 99.023 172.4920
348.904848 98.957 172.3442
351.433156 98.885 172.1975
353.979786 98.812 172.0526
356.544869 98.739 171.9102
359.128540 98.668 171.7708
361.730934 98.604 171.6348
364.352185 98.548 171.5024
366.992431 98.504 171.3737
369.651810 98.473 171.2485
372.330459 98.458 171.1268
375.028519 98.460 171.0084
377.746130 98.478 170.8935
380.483434 98.512 170.7820
383.240574 98.561 170.6743
386.017693 98.623 170.5706
388.814937 98.695 170.4713
391.632450 98.774 170.3771
394.470380 98.858 170.2883
397.328875 98.943 170.2056
400.208084 99.029 170.1293
403.108157 99.113 170.0599
406.029245 99.194 169.9976
408.971500 99.272 169.9427
411.935076 99.346 169.8955
414.920127 99.416 169.8563
417.926810 99.484 169.8252
420.955280 99.550 169.8026
424.005695 99.614 169.7888
427.078215 99.679 169.7842
430.173000 99.743 169.7895
433.290211 99.808 169.8051
436.430010 99.874 169.8317
439.592562 99.940 169.8698
442.778031 100.006 169.9197
445.986583 100.069 169.9817
449.218386 100.129 170.0558
452.473607 100.185 170.1417
455.752418 100.234 170.2389
459.054987 100.277 170.3466
462.381489 100.311 170.4633
465.732096 100.337 170.5875
469.106983 100.354 170.7172
472.506325 100.364 170.8502
475.930301 100.366 170.9841
479.379088 100.361 171.1162
482.852867 100.351 171.2441
486.351817 100.337 171.3652
489.876123 100.319 171.4771
493.425968 100.299 171.5776
497.001536 100.277 171.6649
500.603014 100.253 171.7374
504.230589 100.227 171.7941
507.884452 100.199 171.8344
511.564792 100.169 171.8582
515.271802 100.136 171.8661
519.005673 100.101 171.8590
522.766602 100.063 171.8383
526.554785 100.025 171.8057
530.370418 99.988 171.7626
534.213700 99.953 171.7107
538.084833 99.922 171.6509
541.984018 99.898 171.5839
545.911457 99.882 171.5093
549.867357 99.874 171.4266
553.851922 99.875 171.3347
557.865362 99.884 171.2328
561.907884 99.900 171.1200
565.979700 99.921 170.9961
570.081022 99.944 170.8615
574.212064 99.967 170.7170
578.373042 99.987 170.5638
582.564171 100.003 170.4037
586.785671 100.013 170.2382
591.037762 100.014 170.0692
595.320665 100.007 169.8986
599.634604 99.991 169.7280
603.979804 99.964 169.5593
608.356491 99.929 169.3942
612.764893 99.884 169.2344
617.205240 99.831 169.0818
621.677763 99.771 168.9380
626.182696 99.706 168.8047
630.720274 99.637 168.6830
635.290733 99.567 168.5743
639.894312 99.496 168.4795
644.531250 99.429 168.3992
649.201789 99.366 168.3339
653.906173 99.308 168.2836
658.644647 99.257 168.2485
663.417457 99.213 168.2285
668.224854 99.175 168.2234
673.067086 99.144 168.2333
677.944408 99.117 168.2579
682.857073 99.093 168.2971
687.805336 99.072 168.3505
692.789457 99.051 168.4177
697.809695 99.029 168.4982
702.866312 99.006 168.5913
707.959571 98.980 168.6961
713.089738 98.952 168.8116
718.257080 98.920 168.9366
723.461867 98.886 169.0700
728.704370 98.849 169.2104
733.984862 98.811 169.3564
739.303619 98.771 169.5064
744.660918 98.731 169.6588
750.057038 98.692 169.8119
755.492260 98.653 169.9640
760.966869 98.616 170.1133
766.481148 98.579 170.2585
772.035387 98.543 170.3977
777.629873 98.507 170.5297
783.264900 98.470 170.6532
788.940760 98.430 170.7672
794.657750 98.388 170.8710
800.416168 98.341 170.9644
806.216313 98.289 171.0478
812.058489 98.231 171.1216
817.943000 98.166 171.1868
823.870152 98.095 171.2445
829.840255 98.017 171.2957
835.853619 97.934 171.3412
841.910559 97.846 171.3817
848.011390 97.755 171.4177
854.156430 97.661 171.4492
860.346000 97.565 171.4759
866.580422 97.469 171.4975
872.860020 97.375 171.5131
879.185124 97.282 171.5220
885.556062 97.193 171.5229
891.973166 97.109 171.5145
898.436771 97.030 171.4954
904.947215 96.957 171.4641
911.504835 96.890 171.4196
918.109975 96.831 171.3609
924.762978 96.779 171.2881
931.464192 96.734 171.2023
938.213966 96.695 171.1062
945.012651 96.661 171.0042
951.860602 96.632 170.9024
958.758176 96.606 170.8080
965.705733 96.583 170.7294
972.703635 96.563 170.6747
979.752246 96.544 170.6514
986.851935 96.528 170.6663
994.003071 96.514 170.7244
1001.206027 96.503 170.8298
1008.461179 96.498 170.9858
1015.768904 96.497 171.1948
1023.129584 96.505 171.4591
1030.543603 96.522 171.7807
1038.011347 96.551 172.1611
1045.533205 96.595 172.6007
1053.109569 96.656 173.0982
1060.740836 96.736 173.6491
1068.427401 96.838 174.2448
1076.169666 96.963 174.8709
1083.968035 97.110 175.5069
1091.822915 97.278 176.1258
1099.734713 97.465 176.6959
1107.703844 97.665 177.1837
1115.730723 97.873 177.5582
1123.815768 98.082 177.7952
1131.959400 98.284 177.8824
1140.162045 98.474 177.8207
1148.424129 98.647 177.6245
1156.746083 98.799 177.3182
1165.128342 98.929 176.9326
1173.571343 99.037 176.4998
1182.075524 99.126 176.0492
1190.641331 99.197 175.6056
1199.269209 99.256 175.1879
1207.959608 99.305 174.8089
1216.712981 99.346 174.4763
1225.529785 99.383 174.1933
1234.410479 99.418 173.9598
1243.355526 99.451 173.7733
1252.365393 99.484 173.6297
1261.440549 99.515 173.5242
1270.581467 99.546 173.4518
1279.788624 99.576 173.4077
1289.062500 99.604 173.3875
1298.403578 99.630 173.3879
1307.812346 99.655 173.4061
1317.289293 99.678 173.4401
1326.834914 99.699 173.4887
1336.449707 99.719 173.5508
1346.134173 99.739 173.6253
1355.888816 99.758 173.7113
1365.714145 99.776 173.8074
1375.610673 99.795 173.9121
1385.578915 99.814 174.0237
1395.619391 99.834 174.1403
1405.732624 99.853 174.2599
1415.919142 99.873 174.3806
1426.179476 99.894 174.5003
1436.514160 99.916 174.6171
1446.923734 99.940 174.7290
1457.408740 99.967 174.8343
1467.969724 99.996 174.9312
1478.607238 100.030 175.0182
1489.321836 100.068 175.0939
1500.114076 100.110 175.1573
1510.984521 100.157 175.2076
1521.933737 100.208 175.2443
1532.962297 100.263 175.2672
1544.070773 100.321 175.2763
1555.259747 100.383 175.2719
1566.529800 100.446 175.2544
1577.881521 100.510 175.2244
1589.315501 100.575 175.1825
1600.832336 100.640 175.1293
1612.432627 100.704 175.0653
1624.116978 100.766 174.9908
1635.886000 100.828 174.9062
1647.740304 100.889 174.8113
1659.680509 100.948 174.7061
1671.707238 101.006 174.5904
1683.821118 101.064 174.4638
1696.022780 101.121 174.3264
1708.312860 101.178 174.1779
1720.692000 101.234 174.0187
1733.160843 101.291 173.8489
1745.720041 101.346 173.6690
1758.370248 101.401 173.4796
1771.112124 101.455 173.2809
1783.946332 101.507 173.0739
1796.873543 101.556 172.8589
1809.894429 101.603 172.6364
1823.009670 101.645 172.4071
1836.219950 101.684 172.1712
1849.525956 101.718 171.9294
1862.928384 101.748 171.6820
1876.427931 101.774 171.4297
1890.025301 101.796 171.1729
1903.721204 101.814 170.9124
1917.516352 101.828 170.6487
1931.411466 101.839 170.3827
1945.407270 101.846 170.1152
1959.504493 101.849 169.8471
1973.703870 101.847 169.5794
1988.006142 101.839 169.3134
2002.412054 101.824 169.0502
2016.922357 101.801 168.7912
2031.537808 101.770 168.5378
2046.259169 101.729 168.2913
2061.087206 101.678 168.0531
2076.022694 101.617 167.8245
2091.066410 101.545 167.6068
2106.219139 101.463 167.4012
2121.481671 101.372 167.2092
2136.854802 101.272 167.0319
2152.339333 101.165 166.8703
2167.936071 101.052 166.7254
2183.645829 100.935 166.5977
2199.469427 100.816 166.4874
2215.407689 100.695 166.3940
2231.461446 100.575 166.3170
2247.631536 100.456 166.2552
2263.918800 100.340 166.2073
2280.324089 100.226 166.1721
2296.848258 100.115 166.1485
2313.492167 100.007 166.1358
2330.256685 99.902 166.1335
2347.142685 99.799 166.1419
2364.151049 99.698 166.1616
2381.282662 99.598 166.1937
2398.538418 99.499 166.2394
2415.919216 99.401 166.3007
2433.425962 99.304 166.3792
2451.059570 99.208 166.4769
2468.820958 99.113 166.5956
2486.711052 99.019 166.7370
2504.730786 98.928 166.9026
2522.881098 98.840 167.0937
2541.162934 98.756 167.3113
2559.577248 98.678 167.5561
2578.125000 98.606 167.8283
2596.807157 98.542 168.1279
2615.624692 98.487 168.4541
2634.578586 98.444 168.8057
2653.669829 98.413 169.1809
2672.899414 98.395 169.5770
2692.268345 98.393 169.9906
2711.777632 98.405 170.4176
2731.428290 98.431 170.8536
2751.221345 98.472 171.2938
2771.157829 98.524 171.7337
2791.238781 98.587 172.1693
2811.465248 98.658 172.5972
2831.838284 98.735 173.0153
2852.358952 98.814 173.4223
2873.028321 98.894 173.8177
2893.847468 98.972 174.2018
2914.817480 99.046 174.5750
2935.939449 99.114 174.9380
2957.214476 99.175 175.2914
2978.643672 99.228 175.6356
3000.228152 99.272 175.9708
3021.969041 99.307 176.2975
3043.867475 99.332 176.6158
3065.924593 99.348 176.9264
3088.141547 99.355 177.2297
3110.519493 99.354 177.5266
3133.059600 99.344 177.8181
3155.763041 99.327 178.1054
3178.631001 99.304 178.3898
3201.664672 99.274 178.6728
3224.865254 99.238 178.9563
3248.233957 99.198 179.2424
3271.771999 99.153 179.5336
3295.480608 99.104 179.8332
3319.361019 99.051 -179.8553
3343.414477 98.994 -179.5275
3367.642236 98.935 -179.1788
3392.045560 98.873 -178.8039
3416.625721 98.810 -178.3976
3441.383999 98.747 -177.9545
3466.321686 98.683 -177.4699
3491.440082 98.622 -176.9390
3516.740496 98.563 -176.3582
3542.224247 98.510 -175.7245
3567.892664 98.464 -175.0364
3593.747085 98.427 -174.2934
3619.788858 98.401 -173.4966
3646.019340 98.388 -172.6483
3672.439900 98.389 -171.7522
3699.051913 98.406 -170.8136
3725.856768 98.440 -169.8389
3752.855862 98.491 -168.8360
3780.050603 98.562 -167.8139
3807.442408 98.651 -166.7833
3835.032705 98.759 -165.7559
3862.822933 98.885 -164.7445
3890.814540 99.028 -163.7629
3919.008986 99.188 -162.8251
3947.407741 99.361 -161.9445
3976.012284 99.547 -161.1334
4004.824108 99.744 -160.4019
4033.844715 99.948 -159.7576
4063.075616 100.158 -159.2054
4092.518337 100.371 -158.7478
4122.174412 100.586 -158.3849
4152.045387 100.800 -158.1154
4182.132820 101.013 -157.9367
4212.438278 101.223 -157.8456
4242.963342 101.429 -157.8387
4273.709604 101.631 -157.9128
4304.678665 101.826 -158.0654
4335.872141 102.015 -158.2948
4367.291658 102.196 -158.5995
4398.938854 102.368 -158.9787
4430.815378 102.529 -159.4311
4462.922893 102.679 -159.9548
4495.263072 102.815 -160.5469
4527.837601 102.936 -161.2031
4560.648179 103.041 -161.9180
4593.696515 103.129 -162.6844
4626.984334 103.199 -163.4943
4660.513370 103.250 -164.3384
4694.285371 103.283 -165.2066
4728.302098 103.297 -166.0883
4762.565324 103.293 -166.9725
4797.076835 103.273 -167.8484
4831.838432 103.236 -168.7055
4866.851925 103.186 -169.5338
4902.119140 103.123 -170.3247
4937.641916 103.050 -171.0703
4973.422105 102.968 -171.7643
5009.461572 102.879 -172.4017
5045.762195 102.786 -172.9790
5082.325868 102.689 -173.4941
5119.154496 102.592 -173.9460
5156.250000 102.495 -174.3349
5193.614313 102.399 -174.6624
5231.249383 102.307 -174.9308
5269.157173 102.218 -175.1434
5307.339658 102.135 -175.3045
5345.798829 102.058 -175.4189
5384.536691 101.987 -175.4925
5423.555263 101.923 -175.5316
5462.856580 101.868 -175.5433
5502.442691 101.820 -175.5351
5542.315659 101.782 -175.5153
5582.477563 101.752 -175.4921
5622.930497 101.732 -175.4742
5663.676569 101.723 -175.4702
5704.717904 101.723 -175.4882
5746.056642 101.735 -175.5363
5787.694937 101.758 -175.6220
5829.634960 101.792 -175.7522
5871.878898 101.837 -175.9333
5914.428953 101.892 -176.1712
5957.287343 101.956 -176.4712
6000.456303 102.027 -176.8379
6043.938083 102.104 -177.2749
6087.734950 102.183 -177.7852
6131.849187 102.262 -178.3704
6176.283094 102.338 -179.0310
6221.038987 102.408 -179.7658
6266.119200 102.468 179.4275
6311.526083 102.516 178.5530
6357.262002 102.549 177.6162
6403.329344 102.565 176.6236
6449.730508 102.562 175.5825
6496.467914 102.540 174.5009
6543.543998 102.498 173.3866
6590.961215 102.436 172.2470
6638.722037 102.354 171.0888
6686.828954 102.255 169.9173
6735.284473 102.138 168.7368
6784.091120 102.007 167.5501
6833.251441 101.862 166.3588
6882.767998 101.706 165.1639
6932.643372 101.539 163.9659
6982.880164 101.364 162.7651
7033.480992 101.181 161.5623
7084.448495 100.993 160.3579
7135.785329 100.800 159.1525
7187.494171 100.603 157.9456
7239.577717 100.405 156.7356
7292.038681 100.205 155.5189
7344.879799 100.005 154.2894
7398.103826 99.806 153.0378
7451.713536 99.609 151.7516
7505.711724 99.414 150.4141
7560.101205 99.222 149.0040
7614.884815 99.034 147.4958
7670.065409 98.849 145.8594
7725.645865 98.666 144.0604
7781.629080 98.486 142.0611
7838.017972 98.304 139.8218
7894.815481 98.120 137.3020
7952.024569 97.929 134.4615
8009.648217 97.728 131.2616
8067.689429 97.510 127.6646
8126.151233 97.272 123.6323
8185.036674 97.008 119.1224
8244.348824 96.713 114.0829
8304.090774 96.383 108.4416
8364.265639 96.013 102.0887
8424.876556 95.604 94.8459
8485.926684 95.154 86.4129
8547.419207 94.667 76.2787
8609.357330 94.150 63.6001
8671.744282 93.612 47.1758
8734.583316 93.066 26.1149
8797.877707 92.530 1.9656
8861.630756 92.023 -20.6660
8925.845785 91.564 -38.5425
8990.526143 91.172 -51.7704
9055.675202 90.861 -61.6319
9121.296357 90.639 -69.2289
9187.393031 90.507 -75.2961
9253.968668 90.458 -80.3055
9321.026740 90.479 -84.5682
9388.570742 90.555 -88.2990
9456.604196 90.668 -91.6531
9525.130648 90.802 -94.7471
9594.153671 90.945 -97.6714
9663.676863 91.082 -100.4969
9733.703850 91.205 -103.2794
9804.238280 91.305 -106.0610
9875.283832 91.375 -108.8727
9946.844210 91.409 -111.7336
10018.923143 91.401 -114.6522
10091.524390 91.347 -117.6263
10164.651736 91.244 -120.6431
10238.308993 91.087 -123.6805
10312.500000 90.876 -126.7084
10387.228626 90.608 -129.6903
10462.498767 90.285 -132.5864
10538.314345 89.906 -135.3559
10614.679315 89.474 -137.9602
10691.597657 88.993 -140.3648
10769.073381 88.466 -142.5417
10847.110526 87.898 -144.4707
10925.713161 87.293 -146.1407
11004.885382 86.657 -147.5508
11084.631318 85.994 -148.7111
11164.955126 85.309 -149.6434
11245.860993 84.607 -150.3815
11327.353138 83.891 -150.9704
11409.435808 83.164 -151.4652
11492.113283 82.431 -151.9285
11575.389873 81.691 -152.4277
11659.269920 80.947 -153.0319
11743.757796 80.198 -153.8103
11828.857906 79.444 -154.8314
11914.574686 78.685 -156.1653
12000.912606 77.923 -157.8885
12087.876166 77.158 -160.0920
12175.469900 76.399 -162.8939
12263.698373 75.656 -166.4546
12352.566187 74.952 -170.9924
12442.077974 74.318 -176.7867
12532.238400 73.797 175.8557
12623.052165 73.437 166.7181
12714.524005 73.281 155.8992
12806.658687 73.352 144.0263
12899.461015 73.639 132.1460
12992.935827 74.106 121.2241
13087.087996 74.700 111.7259
13181.922430 75.369 103.6328
13277.444074 76.071 96.6824
13373.657907 76.773 90.5656
13470.568945 77.452 85.0160
13568.182241 78.091 79.8328
13666.502883 78.680 74.8756
13765.535996 79.212 70.0522
13865.286744 79.680 65.3057
13965.760328 80.083 60.6050
14066.961984 80.417 55.9371
14168.896989 80.680 51.3026
14271.570658 80.872 46.7116
14374.988342 80.991 42.1829
14479.155433 81.038 37.7419
14584.077362 81.012 33.4202
14689.759598 80.914 29.2549
14796.207652 80.747 25.2895
14903.427072 80.513 21.5745
15011.423448 80.216 18.1698
15120.202410 79.860 15.1481
15229.769630 79.453 12.5997
15340.130819 79.002 10.6365
15451.291730 78.522 9.3946
15563.258160 78.029 9.0272
15676.035944 77.546 9.6784
15789.630962 77.104 11.4240
15904.049137 76.732 14.1771
16019.296433 76.458 17.6017
16135.378859 76.296 21.1273
16252.302465 76.244 24.1202
16370.073348 76.281 26.1084
16488.697648 76.374 26.8922
16608.181548 76.487 26.5049
16728.531278 76.588 25.1118
16849.753112 76.651 22.9240
16971.853368 76.659 20.1515
17094.838414 76.601 16.9825
17218.714660 76.476 13.5775
17343.488565 76.285 10.0665
17469.166632 76.036 6.5471
17595.755415 75.743 3.0813
17723.261512 75.423 -0.3085
17851.691571 75.098 -3.6401
17981.052287 74.791 -6.9672
18111.350404 74.522 -10.3712
18242.592715 74.309 -13.9486
18374.786062 74.161 -17.7983
18507.937336 74.082 -22.0114
18642.053479 74.064 -26.6615
18777.141484 74.095 -31.7974
18913.208391 74.158 -37.4306
19050.261296 74.233 -43.5212
19188.307342 74.304 -49.9572
19327.353727 74.358 -56.5368
19467.407699 74.387 -62.9582
19608.476560 74.393 -68.8353
19750.567664 74.383 -73.7408
19893.688419 74.366 -77.2728
20037.846286 74.354 -79.1220
