* Measurement data measured by REW V5.31.3
* Source: EXCL: Headset (USB-C to 3.5mm Headphone Jack Adapter), MICROPHONE (Master Volume), 0, volume: 0.170
* Format: 256k Log Swept Sine, 1 sweep at -12.0 dBFS with no timing reference
* Dated: Feb 9, 2025 1:42:16 PM
* REW Settings:
*  C-weighting compensation: Off
*  Target level: 75.0 dB
* Note: ; 
* Measurement: Ouroboros (Golem Mod) L6
* Smoothing: 1/6 octave
* Frequency Step: 96 ppo
* Start Frequency: 20.0 Hz
*
* Freq(Hz) SPL(dB) Phase(degrees)
20.141602 102.198 -97.9657
20.287556 102.191 -98.1724
20.434568 102.180 -98.4507
20.582645 102.162 -98.7937
20.731796 102.134 -99.1944
20.882027 102.095 -99.6456
21.033346 102.042 -100.1409
21.185763 101.975 -100.6741
21.339284 101.893 -101.2397
21.493917 101.799 -101.8324
21.649671 101.693 -102.4472
21.806553 101.578 -103.0794
21.964572 101.457 -103.7246
22.123737 101.334 -104.3786
22.284054 101.213 -105.0379
22.445534 101.097 -105.6996
22.608183 100.989 -106.3613
22.772012 100.893 -107.0211
22.937027 100.809 -107.6778
23.103238 100.740 -108.3300
23.270654 100.685 -108.9761
23.439282 100.642 -109.6141
23.609133 100.611 -110.2413
23.780215 100.589 -110.8544
23.952536 100.573 -111.4497
24.126106 100.563 -112.0235
24.300934 100.556 -112.5728
24.477028 100.550 -113.0957
24.654399 100.546 -113.5924
24.833055 100.543 -114.0654
25.013005 100.540 -114.5200
25.194260 100.539 -114.9642
25.376828 100.539 -115.4080
25.560719 100.541 -115.8624
25.745942 100.544 -116.3384
25.932508 100.548 -116.8451
26.120426 100.553 -117.3884
26.309705 100.556 -117.9697
26.500356 100.557 -118.5853
26.692388 100.554 -119.2265
26.885812 100.545 -119.8802
27.080638 100.529 -120.5300
27.276876 100.506 -121.1582
27.474535 100.476 -121.7476
27.673627 100.440 -122.2833
27.874161 100.401 -122.7550
28.076149 100.362 -123.1578
28.279600 100.327 -123.4933
28.484526 100.300 -123.7698
28.690937 100.285 -124.0015
28.898843 100.287 -124.2070
29.108256 100.307 -124.4071
29.319186 100.348 -124.6221
29.531645 100.410 -124.8697
29.745644 100.489 -125.1623
29.961193 100.582 -125.5056
30.178304 100.685 -125.8984
30.396989 100.791 -126.3328
30.617258 100.896 -126.7959
30.839123 100.994 -127.2710
31.062596 101.080 -127.7404
31.287688 101.150 -128.1872
31.514412 101.200 -128.5967
31.742778 101.227 -128.9580
31.972800 101.229 -129.2641
32.204488 101.206 -129.5119
32.437855 101.156 -129.7014
32.672913 101.080 -129.8355
32.909674 100.980 -129.9193
33.148151 100.858 -129.9598
33.388356 100.718 -129.9657
33.630302 100.563 -129.9476
33.874001 100.397 -129.9178
34.119466 100.227 -129.8892
34.366710 100.056 -129.8741
34.615745 99.887 -129.8832
34.866585 99.726 -129.9240
35.119243 99.574 -130.0001
35.373731 99.434 -130.1114
35.630064 99.308 -130.2550
35.888254 99.198 -130.4263
36.148315 99.105 -130.6209
36.410261 99.033 -130.8353
36.674104 98.981 -131.0679
36.939860 98.953 -131.3181
37.207542 98.947 -131.5860
37.477163 98.965 -131.8714
37.748738 99.007 -132.1728
38.022281 99.070 -132.4874
38.297806 99.155 -132.8117
38.575327 99.260 -133.1421
38.854860 99.385 -133.4764
39.136419 99.529 -133.8141
39.420017 99.690 -134.1574
39.705671 99.867 -134.5100
39.993395 100.060 -134.8770
40.283203 100.266 -135.2632
40.575112 100.483 -135.6722
40.869136 100.710 -136.1057
41.165290 100.944 -136.5629
41.463591 101.185 -137.0409
41.764053 101.429 -137.5349
42.066693 101.676 -138.0392
42.371525 101.923 -138.5477
42.678567 102.169 -139.0546
42.987834 102.411 -139.5553
43.299341 102.648 -140.0467
43.613106 102.877 -140.5273
43.929145 103.096 -140.9976
44.247473 103.303 -141.4596
44.568109 103.497 -141.9165
44.891068 103.675 -142.3715
45.216367 103.835 -142.8274
45.544023 103.978 -143.2856
45.874054 104.102 -143.7461
46.206476 104.206 -144.2079
46.541307 104.291 -144.6690
46.878565 104.357 -145.1272
47.218266 104.405 -145.5811
47.560429 104.436 -146.0304
47.905072 104.450 -146.4755
48.252212 104.449 -146.9179
48.601867 104.433 -147.3591
48.954056 104.405 -147.8009
49.308798 104.366 -148.2447
49.666109 104.318 -148.6911
50.026010 104.262 -149.1402
50.388520 104.200 -149.5912
50.753656 104.135 -150.0425
51.121437 104.069 -150.4919
51.491884 104.003 -150.9364
51.865016 103.939 -151.3731
52.240851 103.878 -151.7988
52.619410 103.820 -152.2110
53.000712 103.767 -152.6077
53.384777 103.718 -152.9878
53.771625 103.673 -153.3513
54.161276 103.632 -153.6983
54.553751 103.592 -154.0300
54.949070 103.554 -154.3473
55.347254 103.517 -154.6515
55.748323 103.478 -154.9437
56.152298 103.438 -155.2249
56.559201 103.395 -155.4958
56.969052 103.350 -155.7574
57.381873 103.302 -156.0103
57.797686 103.251 -156.2554
58.216512 103.198 -156.4934
58.638373 103.144 -156.7248
59.063291 103.089 -156.9499
59.491288 103.034 -157.1689
59.922386 102.978 -157.3820
60.356608 102.924 -157.5895
60.793977 102.871 -157.7918
61.234515 102.819 -157.9896
61.678246 102.768 -158.1842
62.125192 102.719 -158.3769
62.575377 102.673 -158.5698
63.028824 102.629 -158.7649
63.485557 102.588 -158.9646
63.945599 102.551 -159.1709
64.408975 102.518 -159.3855
64.875709 102.490 -159.6094
65.345825 102.466 -159.8427
65.819348 102.446 -160.0848
66.296302 102.431 -160.3343
66.776713 102.422 -160.5895
67.260604 102.416 -160.8486
67.748002 102.414 -161.1108
68.238932 102.417 -161.3758
68.733420 102.422 -161.6444
69.231490 102.431 -161.9179
69.733170 102.442 -162.1976
70.238485 102.455 -162.4847
70.747463 102.470 -162.7801
71.260128 102.487 -163.0844
71.776508 102.505 -163.3976
72.296630 102.525 -163.7201
72.820521 102.545 -164.0520
73.348209 102.567 -164.3934
73.879720 102.589 -164.7446
74.415083 102.611 -165.1057
74.954326 102.633 -165.4768
75.497475 102.654 -165.8577
76.044561 102.675 -166.2484
76.595612 102.694 -166.6488
77.150655 102.711 -167.0588
77.709720 102.726 -167.4778
78.272837 102.738 -167.9055
78.840034 102.746 -168.3409
79.411342 102.750 -168.7831
79.986789 102.750 -169.2309
80.566406 102.746 -169.6836
81.150224 102.736 -170.1407
81.738272 102.722 -170.6018
82.330581 102.705 -171.0669
82.927182 102.684 -171.5360
83.528107 102.662 -172.0090
84.133386 102.639 -172.4855
84.743051 102.619 -172.9650
85.357134 102.604 -173.4472
85.975667 102.597 -173.9313
86.598682 102.601 -174.4169
87.226212 102.619 -174.9034
87.858289 102.656 -175.3904
88.494946 102.712 -175.8772
89.136217 102.791 -176.3632
89.782135 102.893 -176.8478
90.432733 103.017 -177.3305
91.088046 103.160 -177.8107
91.748108 103.320 -178.2884
92.412952 103.492 -178.7633
93.082615 103.671 -179.2354
93.757130 103.851 -179.7047
94.436533 104.027 179.8288
95.120859 104.194 179.3654
95.810144 104.348 178.9050
96.504423 104.487 178.4477
97.203734 104.608 177.9935
97.908112 104.710 177.5423
98.617595 104.793 177.0941
99.332219 104.859 176.6489
100.052021 104.910 176.2068
100.777039 104.946 175.7679
101.507311 104.970 175.3322
102.242875 104.985 174.9000
102.983769 104.992 174.4714
103.730032 104.993 174.0467
104.481702 104.987 173.6261
105.238820 104.975 173.2099
106.001424 104.956 172.7985
106.769554 104.930 172.3921
107.543250 104.894 171.9913
108.322553 104.848 171.5966
109.107503 104.789 171.2083
109.898141 104.717 170.8267
110.694508 104.631 170.4521
111.496646 104.530 170.0850
112.304596 104.414 169.7254
113.118402 104.285 169.3734
113.938104 104.144 169.0290
114.763747 103.993 168.6924
115.595372 103.835 168.3638
116.433024 103.670 168.0436
117.276746 103.502 167.7325
118.126581 103.333 167.4310
118.982575 103.164 167.1398
119.844772 102.995 166.8596
120.713217 102.829 166.5908
121.587954 102.664 166.3341
122.469031 102.500 166.0898
123.356492 102.337 165.8587
124.250384 102.172 165.6411
125.150753 102.006 165.4377
126.057647 101.835 165.2491
126.971113 101.659 165.0760
127.891198 101.477 164.9186
128.817950 101.288 164.7772
129.751418 101.091 164.6524
130.691651 100.887 164.5448
131.638696 100.677 164.4550
132.592604 100.461 164.3840
133.553425 100.242 164.3326
134.521208 100.022 164.3015
135.496004 99.805 164.2914
136.477864 99.592 164.3033
137.466839 99.388 164.3376
138.462981 99.197 164.3949
139.466340 99.021 164.4755
140.476971 98.862 164.5795
141.494925 98.723 164.7072
142.520256 98.602 164.8585
143.553016 98.500 165.0333
144.593260 98.413 165.2318
145.641043 98.339 165.4536
146.696418 98.275 165.6988
147.759441 98.215 165.9670
148.830166 98.158 166.2582
149.908651 98.099 166.5723
150.994951 98.036 166.9091
152.089123 97.969 167.2685
153.191223 97.897 167.6505
154.301310 97.821 168.0549
155.419441 97.743 168.4813
156.545674 97.662 168.9294
157.680069 97.583 169.3983
158.822683 97.506 169.8871
159.973578 97.432 170.3948
161.132813 97.365 170.9201
162.300447 97.303 171.4619
163.476543 97.249 172.0191
164.661162 97.202 172.5907
165.854364 97.164 173.1759
167.056213 97.134 173.7744
168.266772 97.112 174.3857
169.486102 97.100 175.0099
170.714268 97.097 175.6468
171.951334 97.104 176.2958
173.197364 97.122 176.9557
174.452424 97.151 177.6242
175.716578 97.191 178.2975
176.989893 97.241 178.9708
178.272434 97.301 179.6382
179.564270 97.370 -179.7065
180.865467 97.446 -179.0700
182.176092 97.527 -178.4580
183.496216 97.613 -177.8758
184.825905 97.701 -177.3277
186.165229 97.790 -176.8164
187.514259 97.880 -176.3440
188.873065 97.969 -175.9110
190.241717 98.058 -175.5172
191.620287 98.146 -175.1616
193.008847 98.234 -174.8426
194.407468 98.321 -174.5585
195.816225 98.408 -174.3077
197.235190 98.495 -174.0885
198.664438 98.581 -173.8992
200.104042 98.665 -173.7385
201.554078 98.748 -173.6051
203.014622 98.828 -173.4980
204.485750 98.905 -173.4164
205.967538 98.979 -173.3597
207.460064 99.049 -173.3272
208.963405 99.114 -173.3180
210.477640 99.174 -173.3311
212.002848 99.229 -173.3651
213.539108 99.280 -173.4184
215.086500 99.327 -173.4892
216.645105 99.370 -173.5753
218.215005 99.409 -173.6743
219.796281 99.443 -173.7837
221.389015 99.474 -173.9011
222.993292 99.499 -174.0243
224.609193 99.519 -174.1513
226.236804 99.534 -174.2805
227.876209 99.541 -174.4107
229.527494 99.542 -174.5409
231.190745 99.536 -174.6704
232.866048 99.523 -174.7987
234.553491 99.504 -174.9258
236.253163 99.479 -175.0516
237.965150 99.449 -175.1766
239.689544 99.415 -175.3010
241.426433 99.378 -175.4250
243.175909 99.340 -175.5487
244.938062 99.300 -175.6722
246.712984 99.262 -175.7953
248.500768 99.224 -175.9177
250.301507 99.189 -176.0391
252.115295 99.156 -176.1590
253.942226 99.128 -176.2769
255.782396 99.103 -176.3923
257.635901 99.083 -176.5046
259.502837 99.068 -176.6134
261.383301 99.059 -176.7185
263.277392 99.056 -176.8196
265.185209 99.058 -176.9168
267.106850 99.067 -177.0103
269.042417 99.082 -177.1003
270.992009 99.102 -177.1873
272.955729 99.127 -177.2720
274.933678 99.156 -177.3549
276.925961 99.190 -177.4363
278.932681 99.226 -177.5168
280.953942 99.265 -177.5964
282.989850 99.307 -177.6751
285.040511 99.352 -177.7529
287.106032 99.399 -177.8295
289.186521 99.451 -177.9046
291.282086 99.508 -177.9778
293.392836 99.570 -178.0487
295.518881 99.638 -178.1171
297.660333 99.713 -178.1829
299.817302 99.794 -178.2467
301.989902 99.880 -178.3090
304.178245 99.971 -178.3711
306.382446 100.064 -178.4343
308.602620 100.159 -178.5004
310.838882 100.252 -178.5709
313.091348 100.343 -178.6478
315.360137 100.430 -178.7326
317.645367 100.511 -178.8268
319.947156 100.585 -178.9316
322.265625 100.651 -179.0481
324.600895 100.708 -179.1771
326.953086 100.756 -179.3191
329.322323 100.793 -179.4746
331.708729 100.821 -179.6438
334.112427 100.837 -179.8270
336.533543 100.843 179.9758
338.972204 100.838 179.7647
341.428536 100.824 179.5399
343.902668 100.800 179.3017
346.394729 100.768 179.0506
348.904848 100.729 178.7873
351.433156 100.685 178.5129
353.979786 100.639 178.2283
356.544869 100.592 177.9349
359.128540 100.547 177.6341
361.730934 100.507 177.3275
364.352185 100.474 177.0167
366.992431 100.452 176.7034
369.651810 100.442 176.3892
372.330459 100.447 176.0756
375.028519 100.467 175.7641
377.746130 100.502 175.4557
380.483434 100.552 175.1516
383.240574 100.616 174.8526
386.017693 100.691 174.5594
388.814937 100.775 174.2726
391.632450 100.866 173.9929
394.470380 100.960 173.7208
397.328875 101.056 173.4569
400.208084 101.151 173.2017
403.108157 101.244 172.9557
406.029245 101.334 172.7195
408.971500 101.420 172.4940
411.935076 101.502 172.2798
414.920127 101.581 172.0777
417.926810 101.657 171.8889
420.955280 101.731 171.7141
424.005695 101.805 171.5540
427.078215 101.879 171.4087
430.173000 101.955 171.2776
433.290211 102.034 171.1589
436.430010 102.115 171.0499
439.592562 102.198 170.9466
442.778031 102.283 170.8447
445.986583 102.367 170.7394
449.218386 102.450 170.6263
452.473607 102.529 170.5017
455.752418 102.602 170.3627
459.054987 102.668 170.2073
462.381489 102.724 170.0345
465.732096 102.770 169.8438
469.106983 102.806 169.6357
472.506325 102.830 169.4113
475.930301 102.843 169.1719
479.379088 102.846 168.9192
482.852867 102.840 168.6548
486.351817 102.825 168.3805
489.876123 102.802 168.0980
493.425968 102.773 167.8086
497.001536 102.738 167.5136
500.603014 102.698 167.2140
504.230589 102.653 166.9106
507.884452 102.602 166.6040
511.564792 102.547 166.2948
515.271802 102.486 165.9837
519.005673 102.422 165.6713
522.766602 102.354 165.3586
526.554785 102.283 165.0467
530.370418 102.211 164.7368
534.213700 102.141 164.4301
538.084833 102.072 164.1280
541.984018 102.009 163.8318
545.911457 101.951 163.5427
549.867357 101.901 163.2618
553.851922 101.858 162.9900
557.865362 101.821 162.7282
561.907884 101.791 162.4771
565.979700 101.766 162.2372
570.081022 101.744 162.0089
574.212064 101.722 161.7925
578.373042 101.700 161.5883
582.564171 101.675 161.3962
586.785671 101.645 161.2163
591.037762 101.611 161.0487
595.320665 101.570 160.8931
599.634604 101.522 160.7495
603.979804 101.467 160.6177
608.356491 101.405 160.4973
612.764893 101.336 160.3880
617.205240 101.261 160.2894
621.677763 101.182 160.2009
626.182696 101.099 160.1221
630.720274 101.015 160.0526
635.290733 100.930 159.9919
639.894312 100.848 159.9396
644.531250 100.769 159.8955
649.201789 100.696 159.8592
653.906173 100.630 159.8306
658.644647 100.572 159.8095
663.417457 100.522 159.7958
668.224854 100.479 159.7892
673.067086 100.442 159.7894
677.944408 100.411 159.7960
682.857073 100.384 159.8084
687.805336 100.360 159.8262
692.789457 100.336 159.8484
697.809695 100.311 159.8744
702.866312 100.284 159.9031
707.959571 100.255 159.9337
713.089738 100.222 159.9654
718.257080 100.186 159.9979
723.461867 100.145 160.0308
728.704370 100.101 160.0641
733.984862 100.054 160.0979
739.303619 100.004 160.1324
744.660918 99.952 160.1680
750.057038 99.898 160.2047
755.492260 99.844 160.2427
760.966869 99.790 160.2816
766.481148 99.734 160.3212
772.035387 99.679 160.3606
777.629873 99.623 160.3988
783.264900 99.565 160.4348
788.940760 99.504 160.4675
794.657750 99.441 160.4965
800.416168 99.373 160.5214
806.216313 99.300 160.5425
812.058489 99.221 160.5605
817.943000 99.136 160.5763
823.870152 99.044 160.5906
829.840255 98.946 160.6038
835.853619 98.843 160.6162
841.910559 98.734 160.6272
848.011390 98.622 160.6362
854.156430 98.507 160.6418
860.346000 98.390 160.6425
866.580422 98.274 160.6367
872.860020 98.158 160.6227
879.185124 98.045 160.5989
885.556062 97.935 160.5642
891.973166 97.828 160.5179
898.436771 97.726 160.4601
904.947215 97.629 160.3922
911.504835 97.537 160.3163
918.109975 97.451 160.2354
924.762978 97.370 160.1530
931.464192 97.296 160.0726
938.213966 97.228 159.9981
945.012651 97.165 159.9331
951.860602 97.108 159.8812
958.758176 97.055 159.8468
965.705733 97.007 159.8347
972.703635 96.962 159.8508
979.752246 96.921 159.9016
986.851935 96.882 159.9941
994.003071 96.847 160.1357
1001.206027 96.816 160.3333
1008.461179 96.791 160.5936
1015.768904 96.774 160.9221
1023.129584 96.767 161.3226
1030.543603 96.773 161.7974
1038.011347 96.796 162.3454
1045.533205 96.840 162.9620
1053.109569 96.906 163.6374
1060.740836 96.998 164.3555
1068.427401 97.116 165.0938
1076.169666 97.260 165.8237
1083.968035 97.429 166.5120
1091.822915 97.617 167.1236
1099.734713 97.819 167.6260
1107.703844 98.028 167.9929
1115.730723 98.237 168.2078
1123.815768 98.439 168.2658
1131.959400 98.628 168.1745
1140.162045 98.799 167.9515
1148.424129 98.949 167.6223
1156.746083 99.076 167.2159
1165.128342 99.181 166.7621
1173.571343 99.266 166.2886
1182.075524 99.333 165.8187
1190.641331 99.385 165.3708
1199.269209 99.426 164.9582
1207.959608 99.459 164.5893
1216.712981 99.486 164.2684
1225.529785 99.510 163.9963
1234.410479 99.532 163.7717
1243.355526 99.553 163.5911
1252.365393 99.574 163.4504
1261.440549 99.594 163.3450
1270.581467 99.613 163.2701
1279.788624 99.632 163.2214
1289.062500 99.649 163.1948
1298.403578 99.665 163.1870
1307.812346 99.679 163.1950
1317.289293 99.692 163.2164
1326.834914 99.704 163.2490
1336.449707 99.715 163.2911
1346.134173 99.725 163.3409
1355.888816 99.735 163.3971
1365.714145 99.744 163.4579
1375.610673 99.753 163.5221
1385.578915 99.761 163.5882
1395.619391 99.767 163.6550
1405.732624 99.773 163.7213
1415.919142 99.778 163.7863
1426.179476 99.782 163.8490
1436.514160 99.785 163.9091
1446.923734 99.789 163.9658
1457.408740 99.794 164.0188
1467.969724 99.800 164.0679
1478.607238 99.809 164.1128
1489.321836 99.821 164.1531
1500.114076 99.836 164.1886
1510.984521 99.856 164.2188
1521.933737 99.879 164.2433
1532.962297 99.906 164.2618
1544.070773 99.936 164.2737
1555.259747 99.968 164.2791
1566.529800 100.003 164.2778
1577.881521 100.038 164.2698
1589.315501 100.075 164.2554
1600.832336 100.111 164.2346
1612.432627 100.147 164.2075
1624.116978 100.182 164.1741
1635.886000 100.215 164.1344
1647.740304 100.247 164.0883
1659.680509 100.278 164.0356
1671.707238 100.308 163.9764
1683.821118 100.337 163.9106
1696.022780 100.364 163.8385
1708.312860 100.391 163.7601
1720.692000 100.418 163.6759
1733.160843 100.443 163.5863
1745.720041 100.468 163.4919
1758.370248 100.492 163.3934
1771.112124 100.514 163.2914
1783.946332 100.534 163.1868
1796.873543 100.552 163.0806
1809.894429 100.567 162.9737
1823.009670 100.578 162.8674
1836.219950 100.585 162.7629
1849.525956 100.588 162.6616
1862.928384 100.588 162.5645
1876.427931 100.583 162.4730
1890.025301 100.575 162.3879
1903.721204 100.563 162.3102
1917.516352 100.548 162.2406
1931.411466 100.530 162.1797
1945.407270 100.509 162.1281
1959.504493 100.485 162.0863
1973.703870 100.456 162.0547
1988.006142 100.422 162.0338
2002.412054 100.383 162.0239
2016.922357 100.337 162.0255
2031.537808 100.283 162.0389
2046.259169 100.221 162.0649
2061.087206 100.150 162.1041
2076.022694 100.070 162.1577
2091.066410 99.980 162.2266
2106.219139 99.881 162.3124
2121.481671 99.773 162.4164
2136.854802 99.658 162.5399
2152.339333 99.536 162.6843
2167.936071 99.410 162.8506
2183.645829 99.280 163.0399
2199.469427 99.149 163.2528
2215.407689 99.017 163.4898
2231.461446 98.886 163.7509
2247.631536 98.758 164.0362
2263.918800 98.633 164.3456
2280.324089 98.511 164.6788
2296.848258 98.394 165.0358
2313.492167 98.281 165.4164
2330.256685 98.172 165.8204
2347.142685 98.068 166.2480
2364.151049 97.969 166.6992
2381.282662 97.873 167.1741
2398.538418 97.782 167.6724
2415.919216 97.696 168.1942
2433.425962 97.614 168.7392
2451.059570 97.537 169.3069
2468.820958 97.467 169.8966
2486.711052 97.402 170.5075
2504.730786 97.345 171.1384
2522.881098 97.295 171.7881
2541.162934 97.254 172.4550
2559.577248 97.224 173.1375
2578.125000 97.204 173.8337
2596.807157 97.197 174.5414
2615.624692 97.204 175.2581
2634.578586 97.225 175.9811
2653.669829 97.262 176.7068
2672.899414 97.316 177.4314
2692.268345 97.387 178.1500
2711.777632 97.475 178.8574
2731.428290 97.579 179.5479
2751.221345 97.697 -179.7842
2771.157829 97.828 -179.1442
2791.238781 97.970 -178.5367
2811.465248 98.118 -177.9651
2831.838284 98.271 -177.4315
2852.358952 98.425 -176.9368
2873.028321 98.578 -176.4805
2893.847468 98.727 -176.0610
2914.817480 98.869 -175.6759
2935.939449 99.003 -175.3222
2957.214476 99.128 -174.9966
2978.643672 99.243 -174.6957
3000.228152 99.346 -174.4161
3021.969041 99.439 -174.1548
3043.867475 99.521 -173.9092
3065.924593 99.592 -173.6768
3088.141547 99.653 -173.4554
3110.519493 99.704 -173.2430
3133.059600 99.747 -173.0376
3155.763041 99.782 -172.8372
3178.631001 99.810 -172.6398
3201.664672 99.831 -172.4430
3224.865254 99.847 -172.2448
3248.233957 99.857 -172.0430
3271.771999 99.863 -171.8354
3295.480608 99.865 -171.6198
3319.361019 99.864 -171.3942
3343.414477 99.861 -171.1565
3367.642236 99.857 -170.9046
3392.045560 99.853 -170.6365
3416.625721 99.848 -170.3500
3441.383999 99.845 -170.0428
3466.321686 99.844 -169.7128
3491.440082 99.847 -169.3578
3516.740496 99.854 -168.9765
3542.224247 99.866 -168.5678
3567.892664 99.886 -168.1321
3593.747085 99.914 -167.6707
3619.788858 99.951 -167.1862
3646.019340 99.999 -166.6823
3672.439900 100.058 -166.1636
3699.051913 100.129 -165.6355
3725.856768 100.212 -165.1035
3752.855862 100.306 -164.5731
3780.050603 100.413 -164.0495
3807.442408 100.530 -163.5376
3835.032705 100.657 -163.0415
3862.822933 100.794 -162.5649
3890.814540 100.940 -162.1107
3919.008986 101.094 -161.6814
3947.407741 101.254 -161.2790
3976.012284 101.421 -160.9051
4004.824108 101.592 -160.5611
4033.844715 101.768 -160.2480
4063.075616 101.948 -159.9665
4092.518337 102.130 -159.7177
4122.174412 102.315 -159.5025
4152.045387 102.502 -159.3226
4182.132820 102.692 -159.1806
4212.438278 102.883 -159.0799
4242.963342 103.075 -159.0249
4273.709604 103.269 -159.0209
4304.678665 103.463 -159.0737
4335.872141 103.656 -159.1892
4367.291658 103.847 -159.3728
4398.938854 104.035 -159.6292
4430.815378 104.218 -159.9616
4462.922893 104.395 -160.3717
4495.263072 104.563 -160.8597
4527.837601 104.721 -161.4241
4560.648179 104.868 -162.0620
4593.696515 105.002 -162.7692
4626.984334 105.123 -163.5410
4660.513370 105.230 -164.3718
4694.285371 105.322 -165.2560
4728.302098 105.400 -166.1878
4762.565324 105.464 -167.1613
4797.076835 105.513 -168.1705
4831.838432 105.550 -169.2096
4866.851925 105.574 -170.2725
4902.119140 105.586 -171.3531
4937.641916 105.586 -172.4450
4973.422105 105.576 -173.5418
5009.461572 105.557 -174.6367
5045.762195 105.528 -175.7227
5082.325868 105.491 -176.7925
5119.154496 105.446 -177.8388
5156.250000 105.393 -178.8542
5193.614313 105.334 -179.8316
5231.249383 105.268 179.2359
5269.157173 105.197 178.3543
5307.339658 105.121 177.5286
5345.798829 105.042 176.7626
5384.536691 104.960 176.0584
5423.555263 104.877 175.4166
5462.856580 104.794 174.8356
5502.442691 104.713 174.3120
5542.315659 104.636 173.8403
5582.477563 104.565 173.4131
5622.930497 104.500 173.0214
5663.676569 104.444 172.6551
5704.717904 104.398 172.3027
5746.056642 104.364 171.9528
5787.694937 104.341 171.5935
5829.634960 104.331 171.2139
5871.878898 104.333 170.8035
5914.428953 104.346 170.3538
5957.287343 104.368 169.8574
6000.456303 104.398 169.3093
6043.938083 104.433 168.7063
6087.734950 104.470 168.0471
6131.849187 104.506 167.3326
6176.283094 104.539 166.5650
6221.038987 104.565 165.7482
6266.119200 104.582 164.8870
6311.526083 104.587 163.9868
6357.262002 104.579 163.0533
6403.329344 104.556 162.0923
6449.730508 104.517 161.1089
6496.467914 104.461 160.1075
6543.543998 104.389 159.0915
6590.961215 104.301 158.0637
6638.722037 104.198 157.0255
6686.828954 104.080 155.9780
6735.284473 103.948 154.9213
6784.091120 103.804 153.8555
6833.251441 103.648 152.7803
6882.767998 103.483 151.6958
6932.643372 103.309 150.6020
6982.880164 103.127 149.4995
7033.480992 102.938 148.3888
7084.448495 102.742 147.2708
7135.785329 102.542 146.1463
7187.494171 102.337 145.0153
7239.577717 102.128 143.8770
7292.038681 101.915 142.7287
7344.879799 101.700 141.5657
7398.103826 101.483 140.3799
7451.713536 101.264 139.1602
7505.711724 101.043 137.8914
7560.101205 100.821 136.5539
7614.884815 100.599 135.1241
7670.065409 100.376 133.5737
7725.645865 100.152 131.8704
7781.629080 99.928 129.9773
7838.017972 99.704 127.8530
7894.815481 99.480 125.4519
7952.024569 99.258 122.7231
8009.648217 99.037 119.6091
8067.689429 98.817 116.0417
8126.151233 98.601 111.9335
8185.036674 98.387 107.1595
8244.348824 98.180 101.5163
8304.090774 97.980 94.6249
8364.265639 97.793 85.6773
8424.876556 97.623 72.6785
8485.926684 97.477 50.0554
8547.419207 97.361 7.2367
8609.357330 97.281 -37.9904
8671.744282 97.240 -62.5977
8734.583316 97.240 -76.4745
8797.877707 97.278 -85.9510
8861.630756 97.351 -93.2979
8925.845785 97.453 -99.4263
8990.526143 97.579 -104.7615
9055.675202 97.722 -109.5292
9121.296357 97.876 -113.8638
9187.393031 98.036 -117.8550
9253.968668 98.197 -121.5683
9321.026740 98.354 -125.0563
9388.570742 98.504 -128.3638
9456.604196 98.643 -131.5314
9525.130648 98.769 -134.5956
9594.153671 98.876 -137.5905
9663.676863 98.963 -140.5460
9733.703850 99.026 -143.4880
9804.238280 99.061 -146.4371
9875.283832 99.065 -149.4080
9946.844210 99.035 -152.4089
10018.923143 98.970 -155.4420
10091.524390 98.867 -158.5036
10164.651736 98.725 -161.5849
10238.308993 98.544 -164.6727
10312.500000 98.323 -167.7506
10387.228626 98.063 -170.8000
10462.498767 97.765 -173.8018
10538.314345 97.430 -176.7373
10614.679315 97.062 -179.5900
10691.597657 96.661 177.6537
10769.073381 96.231 175.0040
10847.110526 95.772 172.4680
10925.713161 95.288 170.0499
11004.885382 94.778 167.7524
11084.631318 94.244 165.5778
11164.955126 93.685 163.5294
11245.860993 93.100 161.6136
11327.353138 92.488 159.8409
11409.435808 91.846 158.2277
11492.113283 91.175 156.7956
11575.389873 90.473 155.5714
11659.269920 89.739 154.5839
11743.757796 88.974 153.8604
11828.857906 88.180 153.4217
11914.574686 87.361 153.2762
12000.912606 86.522 153.4144
12087.876166 85.669 153.8032
12175.469900 84.809 154.3834
12263.698373 83.951 155.0689
12352.566187 83.103 155.7512
12442.077974 82.274 156.3078
12532.238400 81.471 156.6136
12623.052165 80.699 156.5528
12714.524005 79.962 156.0272
12806.658687 79.257 154.9583
12899.461015 78.584 153.2813
12992.935827 77.939 150.9265
13087.087996 77.320 147.7799
13181.922430 76.732 143.5922
13277.444074 76.182 137.7198
13373.657907 75.682 128.1549
13470.568945 75.250 106.1229
13568.182241 74.898 37.6942
13666.502883 74.635 -10.3570
13765.535996 74.458 -25.9203
13865.286744 74.355 -34.1526
13965.760328 74.307 -39.9349
14066.961984 74.288 -44.5745
14168.896989 74.276 -48.5330
14271.570658 74.250 -51.9890
14374.988342 74.196 -55.0001
14479.155433 74.102 -57.5585
14584.077362 73.966 -59.6146
14689.759598 73.792 -61.0883
14796.207652 73.588 -61.8783
14903.427072 73.373 -61.8757
15011.423448 73.171 -60.9886
15120.202410 73.013 -59.1827
15229.769630 72.931 -56.5340
15340.130819 72.952 -53.2732
15451.291730 73.091 -49.7816
15563.258160 73.344 -46.5126
15676.035944 73.694 -43.8702
15789.630962 74.110 -42.1182
15904.049137 74.560 -41.3597
16019.296433 75.015 -41.5737
16135.378859 75.451 -42.6663
16252.302465 75.850 -44.5124
16370.073348 76.201 -46.9814
16488.697648 76.500 -49.9507
16608.181548 76.745 -53.3107
16728.531278 76.940 -56.9667
16849.753112 77.090 -60.8385
16971.853368 77.208 -64.8623
17094.838414 77.307 -68.9944
17218.714660 77.403 -73.2177
17343.488565 77.514 -77.5484
17469.166632 77.653 -82.0386
17595.755415 77.829 -86.7700
17723.261512 78.037 -91.8396
17851.691571 78.271 -97.3396
17981.052287 78.514 -103.3430
18111.350404 78.752 -109.8982
18242.592715 78.972 -117.0336
18374.786062 79.161 -124.7666
18507.937336 79.312 -133.1146
18642.053479 79.420 -142.1025
18777.141484 79.480 -151.7654
18913.208391 79.490 -162.1414
19050.261296 79.450 -173.2457
19188.307342 79.365 174.9871
19327.353727 79.242 162.7976
19467.407699 79.091 150.7032
19608.476560 78.931 139.5081
19750.567664 78.782 130.1528
19893.688419 78.667 123.4651
20037.846286 78.604 119.9944
