* Measurement data measured by REW V5.31.3
* Source: EXCL: Headset (USB-C to 3.5mm Headphone Jack Adapter), MICROPHONE (Master Volume), 0, volume: 0.170
* Format: 256k Log Swept Sine, 1 sweep at -12.0 dBFS with no timing reference
* Dated: Feb 9, 2025 1:41:30 PM
* REW Settings:
*  C-weighting compensation: Off
*  Target level: 75.0 dB
* Note: ; 
* Measurement: Ouroboros (Golem Mod) L4
* Smoothing: 1/6 octave
* Frequency Step: 96 ppo
* Start Frequency: 20.0 Hz
*
* Freq(Hz) SPL(dB) Phase(degrees)
20.141602 106.364 -113.4612
20.287556 106.366 -113.6944
20.434568 106.366 -114.0037
20.582645 106.362 -114.3762
20.731796 106.350 -114.7981
20.882027 106.327 -115.2559
21.033346 106.292 -115.7375
21.185763 106.241 -116.2331
21.339284 106.175 -116.7352
21.493917 106.093 -117.2395
21.649671 105.995 -117.7443
21.806553 105.884 -118.2508
21.964572 105.760 -118.7628
22.123737 105.627 -119.2857
22.284054 105.487 -119.8266
22.445534 105.342 -120.3929
22.608183 105.196 -120.9915
22.772012 105.052 -121.6281
22.937027 104.913 -122.3057
23.103238 104.780 -123.0246
23.270654 104.656 -123.7814
23.439282 104.544 -124.5691
23.609133 104.444 -125.3778
23.780215 104.359 -126.1950
23.952536 104.289 -127.0070
24.126106 104.235 -127.7998
24.300934 104.197 -128.5612
24.477028 104.175 -129.2811
24.654399 104.167 -129.9527
24.833055 104.171 -130.5734
25.013005 104.185 -131.1441
25.194260 104.206 -131.6692
25.376828 104.231 -132.1556
25.560719 104.256 -132.6124
25.745942 104.278 -133.0489
25.932508 104.294 -133.4747
26.120426 104.301 -133.8985
26.309705 104.300 -134.3278
26.500356 104.287 -134.7685
26.692388 104.264 -135.2248
26.885812 104.230 -135.6991
27.080638 104.188 -136.1920
27.276876 104.137 -136.7022
27.474535 104.081 -137.2267
27.673627 104.022 -137.7609
27.874161 103.963 -138.2989
28.076149 103.906 -138.8340
28.279600 103.855 -139.3594
28.484526 103.814 -139.8689
28.690937 103.784 -140.3578
28.898843 103.770 -140.8235
29.108256 103.773 -141.2655
29.319186 103.793 -141.6857
29.531645 103.832 -142.0879
29.745644 103.887 -142.4769
29.961193 103.956 -142.8577
30.178304 104.035 -143.2350
30.396989 104.121 -143.6123
30.617258 104.209 -143.9919
30.839123 104.295 -144.3746
31.062596 104.372 -144.7607
31.287688 104.439 -145.1494
31.514412 104.489 -145.5395
31.742778 104.520 -145.9293
31.972800 104.529 -146.3163
32.204488 104.512 -146.6971
32.437855 104.468 -147.0665
32.672913 104.395 -147.4183
32.909674 104.293 -147.7453
33.148151 104.163 -148.0406
33.388356 104.006 -148.2982
33.630302 103.827 -148.5150
33.874001 103.628 -148.6907
34.119466 103.414 -148.8289
34.366710 103.190 -148.9360
34.615745 102.962 -149.0199
34.866585 102.734 -149.0888
35.119243 102.510 -149.1489
35.373731 102.295 -149.2040
35.630064 102.093 -149.2549
35.888254 101.906 -149.3001
36.148315 101.737 -149.3374
36.410261 101.590 -149.3649
36.674104 101.466 -149.3828
36.939860 101.368 -149.3936
37.207542 101.296 -149.4020
37.477163 101.252 -149.4139
37.748738 101.235 -149.4353
38.022281 101.245 -149.4708
38.297806 101.279 -149.5228
38.575327 101.337 -149.5912
38.854860 101.417 -149.6736
39.136419 101.518 -149.7666
39.420017 101.640 -149.8664
39.705671 101.782 -149.9698
39.993395 101.942 -150.0755
40.283203 102.121 -150.1832
40.575112 102.316 -150.2946
40.869136 102.526 -150.4118
41.165290 102.748 -150.5373
41.463591 102.980 -150.6727
41.764053 103.220 -150.8191
42.066693 103.465 -150.9764
42.371525 103.712 -151.1437
42.678567 103.958 -151.3199
42.987834 104.202 -151.5038
43.299341 104.440 -151.6947
43.613106 104.672 -151.8926
43.929145 104.896 -152.0979
44.247473 105.109 -152.3116
44.568109 105.309 -152.5346
44.891068 105.497 -152.7675
45.216367 105.669 -153.0109
45.544023 105.826 -153.2649
45.874054 105.965 -153.5295
46.206476 106.087 -153.8047
46.541307 106.191 -154.0901
46.878565 106.276 -154.3853
47.218266 106.343 -154.6895
47.560429 106.392 -155.0013
47.905072 106.423 -155.3187
48.252212 106.438 -155.6390
48.601867 106.438 -155.9593
48.954056 106.424 -156.2768
49.308798 106.398 -156.5885
49.666109 106.363 -156.8923
50.026010 106.320 -157.1862
50.388520 106.272 -157.4694
50.753656 106.221 -157.7414
51.121437 106.169 -158.0028
51.491884 106.119 -158.2549
51.865016 106.070 -158.4993
52.240851 106.025 -158.7383
52.619410 105.985 -158.9734
53.000712 105.949 -159.2060
53.384777 105.919 -159.4369
53.771625 105.892 -159.6660
54.161276 105.870 -159.8928
54.553751 105.851 -160.1166
54.949070 105.835 -160.3364
55.347254 105.820 -160.5513
55.748323 105.806 -160.7606
56.152298 105.791 -160.9636
56.559201 105.776 -161.1604
56.969052 105.759 -161.3514
57.381873 105.740 -161.5374
57.797686 105.719 -161.7198
58.216512 105.696 -161.9006
58.638373 105.673 -162.0817
59.063291 105.648 -162.2654
59.491288 105.624 -162.4537
59.922386 105.601 -162.6487
60.356608 105.579 -162.8520
60.793977 105.560 -163.0652
61.234515 105.544 -163.2896
61.678246 105.530 -163.5264
62.125192 105.520 -163.7764
62.575377 105.512 -164.0405
63.028824 105.507 -164.3195
63.485557 105.505 -164.6140
63.945599 105.506 -164.9245
64.408975 105.509 -165.2516
64.875709 105.515 -165.5960
65.345825 105.523 -165.9582
65.819348 105.535 -166.3388
66.296302 105.550 -166.7381
66.776713 105.568 -167.1564
67.260604 105.588 -167.5939
67.748002 105.611 -168.0506
68.238932 105.636 -168.5268
68.733420 105.662 -169.0222
69.231490 105.689 -169.5367
69.733170 105.718 -170.0692
70.238485 105.746 -170.6189
70.747463 105.775 -171.1844
71.260128 105.803 -171.7642
71.776508 105.831 -172.3570
72.296630 105.858 -172.9615
72.820521 105.884 -173.5764
73.348209 105.908 -174.2006
73.879720 105.931 -174.8331
74.415083 105.952 -175.4728
74.954326 105.971 -176.1191
75.497475 105.987 -176.7710
76.044561 106.001 -177.4278
76.595612 106.013 -178.0885
77.150655 106.021 -178.7521
77.709720 106.025 -179.4177
78.272837 106.024 179.9157
78.840034 106.020 179.2490
79.411342 106.010 178.5829
79.986789 105.996 177.9181
80.566406 105.976 177.2549
81.150224 105.951 176.5938
81.738272 105.921 175.9349
82.330581 105.886 175.2784
82.927182 105.848 174.6243
83.528107 105.808 173.9726
84.133386 105.766 173.3232
84.743051 105.726 172.6759
85.357134 105.689 172.0307
85.975667 105.659 171.3872
86.598682 105.638 170.7454
87.226212 105.631 170.1051
87.858289 105.640 169.4661
88.494946 105.669 168.8286
89.136217 105.720 168.1926
89.782135 105.792 167.5587
90.432733 105.887 166.9272
91.088046 106.002 166.2987
91.748108 106.133 165.6738
92.412952 106.277 165.0534
93.082615 106.428 164.4380
93.757130 106.581 163.8286
94.436533 106.730 163.2257
95.120859 106.872 162.6298
95.810144 107.000 162.0413
96.504423 107.113 161.4601
97.203734 107.207 160.8863
97.908112 107.283 160.3199
98.617595 107.340 159.7609
99.332219 107.378 159.2093
100.052021 107.400 158.6651
100.777039 107.408 158.1284
101.507311 107.403 157.5995
102.242875 107.388 157.0786
102.983769 107.365 156.5667
103.730032 107.334 156.0644
104.481702 107.298 155.5726
105.238820 107.256 155.0921
106.001424 107.208 154.6233
106.769554 107.152 154.1664
107.543250 107.088 153.7212
108.322553 107.012 153.2875
109.107503 106.925 152.8650
109.898141 106.824 152.4534
110.694508 106.709 152.0525
111.496646 106.579 151.6623
112.304596 106.435 151.2829
113.118402 106.277 150.9146
113.938104 106.106 150.5575
114.763747 105.925 150.2120
115.595372 105.736 149.8784
116.433024 105.540 149.5570
117.276746 105.341 149.2480
118.126581 105.140 148.9515
118.982575 104.939 148.6680
119.844772 104.739 148.3977
120.713217 104.540 148.1410
121.587954 104.344 147.8986
122.469031 104.149 147.6711
123.356492 103.954 147.4590
124.250384 103.759 147.2632
125.150753 103.562 147.0840
126.057647 103.361 146.9221
126.971113 103.156 146.7780
127.891198 102.945 146.6520
128.817950 102.727 146.5445
129.751418 102.502 146.4559
130.691651 102.270 146.3867
131.638696 102.032 146.3374
132.592604 101.788 146.3085
133.553425 101.541 146.3009
134.521208 101.292 146.3154
135.496004 101.046 146.3528
136.477864 100.804 146.4141
137.466839 100.570 146.5001
138.462981 100.348 146.6118
139.466340 100.141 146.7499
140.476971 99.951 146.9150
141.494925 99.781 147.1075
142.520256 99.629 147.3276
143.553016 99.497 147.5756
144.593260 99.380 147.8514
145.641043 99.278 148.1547
146.696418 99.186 148.4855
147.759441 99.100 148.8431
148.830166 99.016 149.2271
149.908651 98.933 149.6368
150.994951 98.848 150.0714
152.089123 98.758 150.5300
153.191223 98.665 151.0118
154.301310 98.567 151.5162
155.419441 98.467 152.0428
156.545674 98.365 152.5914
157.680069 98.263 153.1618
158.822683 98.164 153.7538
159.973578 98.069 154.3673
161.132813 97.979 155.0017
162.300447 97.896 155.6566
163.476543 97.820 156.3312
164.661162 97.752 157.0250
165.854364 97.693 157.7372
167.056213 97.643 158.4669
168.266772 97.603 159.2127
169.486102 97.573 159.9729
170.714268 97.554 160.7451
171.951334 97.546 161.5262
173.197364 97.551 162.3120
174.452424 97.567 163.0978
175.716578 97.595 163.8784
176.989893 97.635 164.6481
178.272434 97.685 165.4014
179.564270 97.743 166.1329
180.865467 97.809 166.8384
182.176092 97.880 167.5143
183.496216 97.955 168.1580
184.825905 98.032 168.7681
186.165229 98.109 169.3438
187.514259 98.187 169.8846
188.873065 98.265 170.3911
190.241717 98.342 170.8635
191.620287 98.419 171.3026
193.008847 98.495 171.7092
194.407468 98.571 172.0841
195.816225 98.647 172.4283
197.235190 98.723 172.7428
198.664438 98.799 173.0286
200.104042 98.873 173.2868
201.554078 98.946 173.5183
203.014622 99.017 173.7241
204.485750 99.084 173.9050
205.967538 99.149 174.0623
207.460064 99.209 174.1974
208.963405 99.265 174.3119
210.477640 99.317 174.4075
212.002848 99.364 174.4861
213.539108 99.408 174.5495
215.086500 99.447 174.5993
216.645105 99.483 174.6368
218.215005 99.516 174.6633
219.796281 99.545 174.6793
221.389015 99.570 174.6855
222.993292 99.591 174.6820
224.609193 99.607 174.6690
226.236804 99.618 174.6468
227.876209 99.623 174.6155
229.527494 99.621 174.5756
231.190745 99.612 174.5276
232.866048 99.597 174.4724
234.553491 99.576 174.4106
236.253163 99.549 174.3434
237.965150 99.517 174.2719
239.689544 99.481 174.1973
241.426433 99.442 174.1207
243.175909 99.401 174.0434
244.938062 99.360 173.9662
246.712984 99.319 173.8899
248.500768 99.278 173.8147
250.301507 99.240 173.7405
252.115295 99.205 173.6667
253.942226 99.173 173.5926
255.782396 99.145 173.5171
257.635901 99.122 173.4391
259.502837 99.104 173.3575
261.383301 99.091 173.2717
263.277392 99.084 173.1812
265.185209 99.083 173.0859
267.106850 99.087 172.9862
269.042417 99.097 172.8827
270.992009 99.111 172.7763
272.955729 99.129 172.6679
274.933678 99.151 172.5587
276.925961 99.176 172.4497
278.932681 99.203 172.3420
280.953942 99.232 172.2363
282.989850 99.262 172.1332
285.040511 99.293 172.0333
287.106032 99.327 171.9366
289.186521 99.362 171.8437
291.282086 99.401 171.7544
293.392836 99.445 171.6690
295.518881 99.492 171.5875
297.660333 99.545 171.5105
299.817302 99.603 171.4382
301.989902 99.664 171.3716
304.178245 99.728 171.3112
306.382446 99.794 171.2578
308.602620 99.860 171.2121
310.838882 99.924 171.1745
313.091348 99.984 171.1452
315.360137 100.040 171.1241
317.645367 100.089 171.1109
319.947156 100.131 171.1050
322.265625 100.165 171.1057
324.600895 100.191 171.1122
326.953086 100.207 171.1238
329.322323 100.215 171.1398
331.708729 100.212 171.1596
334.112427 100.201 171.1826
336.533543 100.180 171.2082
338.972204 100.150 171.2358
341.428536 100.113 171.2647
343.902668 100.068 171.2942
346.394729 100.018 171.3231
348.904848 99.964 171.3506
351.433156 99.907 171.3753
353.979786 99.850 171.3964
356.544869 99.796 171.4127
359.128540 99.747 171.4235
361.730934 99.706 171.4279
364.352185 99.676 171.4256
366.992431 99.658 171.4162
369.651810 99.657 171.3998
372.330459 99.672 171.3766
375.028519 99.704 171.3469
377.746130 99.755 171.3112
380.483434 99.823 171.2698
383.240574 99.905 171.2233
386.017693 100.001 171.1720
388.814937 100.108 171.1162
391.632450 100.222 171.0562
394.470380 100.341 170.9922
397.328875 100.463 170.9240
400.208084 100.585 170.8520
403.108157 100.705 170.7760
406.029245 100.822 170.6964
408.971500 100.936 170.6134
411.935076 101.047 170.5278
414.920127 101.153 170.4404
417.926810 101.257 170.3526
420.955280 101.359 170.2658
424.005695 101.460 170.1814
427.078215 101.561 170.1006
430.173000 101.663 170.0240
433.290211 101.766 169.9514
436.430010 101.871 169.8810
439.592562 101.977 169.8102
442.778031 102.084 169.7354
445.986583 102.189 169.6525
449.218386 102.293 169.5572
452.473607 102.391 169.4460
455.752418 102.483 169.3159
459.054987 102.567 169.1653
462.381489 102.641 168.9929
465.732096 102.704 168.7986
469.106983 102.756 168.5828
472.506325 102.797 168.3460
475.930301 102.826 168.0895
479.379088 102.846 167.8145
482.852867 102.855 167.5223
486.351817 102.856 167.2146
489.876123 102.849 166.8929
493.425968 102.835 166.5589
497.001536 102.815 166.2143
500.603014 102.788 165.8609
504.230589 102.756 165.5003
507.884452 102.718 165.1342
511.564792 102.673 164.7641
515.271802 102.623 164.3914
519.005673 102.568 164.0174
522.766602 102.509 163.6435
526.554785 102.446 163.2708
530.370418 102.382 162.9005
534.213700 102.318 162.5338
538.084833 102.256 162.1717
541.984018 102.199 161.8150
545.911457 102.147 161.4647
549.867357 102.102 161.1216
553.851922 102.064 160.7866
557.865362 102.032 160.4605
561.907884 102.006 160.1443
565.979700 101.984 159.8387
570.081022 101.964 159.5446
574.212064 101.944 159.2625
578.373042 101.923 158.9924
582.564171 101.899 158.7345
586.785671 101.870 158.4883
591.037762 101.835 158.2534
595.320665 101.794 158.0293
599.634604 101.746 157.8157
603.979804 101.690 157.6124
608.356491 101.627 157.4198
612.764893 101.557 157.2384
617.205240 101.480 157.0690
621.677763 101.398 156.9125
626.182696 101.312 156.7695
630.720274 101.223 156.6402
635.290733 101.133 156.5244
639.894312 101.044 156.4215
644.531250 100.958 156.3306
649.201789 100.876 156.2505
653.906173 100.800 156.1801
658.644647 100.731 156.1181
663.417457 100.669 156.0642
668.224854 100.615 156.0179
673.067086 100.568 155.9792
677.944408 100.526 155.9487
682.857073 100.488 155.9266
687.805336 100.452 155.9134
692.789457 100.417 155.9092
697.809695 100.382 155.9142
702.866312 100.344 155.9279
707.959571 100.304 155.9500
713.089738 100.260 155.9798
718.257080 100.212 156.0168
723.461867 100.160 156.0602
728.704370 100.104 156.1094
733.984862 100.044 156.1638
739.303619 99.982 156.2224
744.660918 99.918 156.2846
750.057038 99.852 156.3498
755.492260 99.786 156.4174
760.966869 99.720 156.4871
766.481148 99.654 156.5587
772.035387 99.587 156.6324
777.629873 99.520 156.7087
783.264900 99.451 156.7881
788.940760 99.379 156.8715
794.657750 99.304 156.9596
800.416168 99.224 157.0531
806.216313 99.139 157.1526
812.058489 99.048 157.2585
817.943000 98.952 157.3708
823.870152 98.849 157.4893
829.840255 98.741 157.6135
835.853619 98.628 157.7425
841.910559 98.511 157.8752
848.011390 98.391 158.0103
854.156430 98.271 158.1461
860.346000 98.149 158.2805
866.580422 98.029 158.4112
872.860020 97.911 158.5359
879.185124 97.797 158.6522
885.556062 97.686 158.7583
891.973166 97.581 158.8528
898.436771 97.482 158.9352
904.947215 97.389 159.0059
911.504835 97.302 159.0665
918.109975 97.223 159.1192
924.762978 97.152 159.1667
931.464192 97.088 159.2122
938.213966 97.031 159.2586
945.012651 96.981 159.3091
951.860602 96.938 159.3669
958.758176 96.901 159.4356
965.705733 96.869 159.5197
972.703635 96.842 159.6244
979.752246 96.819 159.7556
986.851935 96.800 159.9203
994.003071 96.786 160.1258
1001.206027 96.776 160.3792
1008.461179 96.773 160.6872
1015.768904 96.779 161.0557
1023.129584 96.796 161.4888
1030.543603 96.826 161.9887
1038.011347 96.875 162.5544
1045.533205 96.943 163.1809
1053.109569 97.034 163.8581
1060.740836 97.151 164.5694
1068.427401 97.294 165.2917
1076.169666 97.462 165.9957
1083.968035 97.653 166.6476
1091.822915 97.863 167.2122
1099.734713 98.085 167.6575
1107.703844 98.312 167.9580
1115.730723 98.538 168.0987
1123.815768 98.755 168.0764
1131.959400 98.958 167.8997
1140.162045 99.141 167.5878
1148.424129 99.302 167.1666
1156.746083 99.439 166.6663
1165.128342 99.553 166.1173
1173.571343 99.646 165.5474
1182.075524 99.720 164.9805
1190.641331 99.778 164.4351
1199.269209 99.825 163.9246
1207.959608 99.862 163.4575
1216.712981 99.893 163.0383
1225.529785 99.921 162.6680
1234.410479 99.946 162.3452
1243.355526 99.970 162.0667
1252.365393 99.993 161.8286
1261.440549 100.015 161.6263
1270.581467 100.035 161.4554
1279.788624 100.054 161.3116
1289.062500 100.071 161.1912
1298.403578 100.086 161.0907
1307.812346 100.098 161.0074
1317.289293 100.109 160.9390
1326.834914 100.117 160.8835
1336.449707 100.123 160.8395
1346.134173 100.127 160.8056
1355.888816 100.130 160.7808
1365.714145 100.131 160.7643
1375.610673 100.131 160.7553
1385.578915 100.130 160.7532
1395.619391 100.127 160.7571
1405.732624 100.123 160.7666
1415.919142 100.118 160.7809
1426.179476 100.113 160.7993
1436.514160 100.107 160.8210
1446.923734 100.102 160.8454
1457.408740 100.098 160.8717
1467.969724 100.096 160.8992
1478.607238 100.097 160.9269
1489.321836 100.101 160.9542
1500.114076 100.109 160.9802
1510.984521 100.121 161.0038
1521.933737 100.138 161.0241
1532.962297 100.158 161.0403
1544.070773 100.182 161.0516
1555.259747 100.209 161.0571
1566.529800 100.238 161.0565
1577.881521 100.268 161.0496
1589.315501 100.300 161.0361
1600.832336 100.331 161.0161
1612.432627 100.362 160.9896
1624.116978 100.393 160.9568
1635.886000 100.422 160.9176
1647.740304 100.451 160.8723
1659.680509 100.478 160.8207
1671.707238 100.504 160.7632
1683.821118 100.529 160.7000
1696.022780 100.553 160.6312
1708.312860 100.576 160.5572
1720.692000 100.599 160.4783
1733.160843 100.621 160.3950
1745.720041 100.643 160.3079
1758.370248 100.663 160.2176
1771.112124 100.683 160.1250
1783.946332 100.700 160.0311
1796.873543 100.715 159.9368
1809.894429 100.726 159.8434
1823.009670 100.735 159.7521
1836.219950 100.739 159.6643
1849.525956 100.740 159.5811
1862.928384 100.737 159.5036
1876.427931 100.731 159.4330
1890.025301 100.721 159.3699
1903.721204 100.708 159.3149
1917.516352 100.693 159.2685
1931.411466 100.674 159.2309
1945.407270 100.653 159.2022
1959.504493 100.629 159.1826
1973.703870 100.600 159.1721
1988.006142 100.567 159.1708
2002.412054 100.529 159.1790
2016.922357 100.483 159.1968
2031.537808 100.430 159.2249
2046.259169 100.369 159.2637
2061.087206 100.298 159.3141
2076.022694 100.219 159.3774
2091.066410 100.130 159.4548
2106.219139 100.032 159.5478
2121.481671 99.926 159.6578
2136.854802 99.813 159.7863
2152.339333 99.694 159.9343
2167.936071 99.570 160.1027
2183.645829 99.442 160.2921
2199.469427 99.313 160.5027
2215.407689 99.184 160.7346
2231.461446 99.056 160.9875
2247.631536 98.930 161.2613
2263.918800 98.806 161.5554
2280.324089 98.687 161.8695
2296.848258 98.572 162.2031
2313.492167 98.461 162.5560
2330.256685 98.355 162.9279
2347.142685 98.254 163.3192
2364.151049 98.156 163.7299
2381.282662 98.063 164.1605
2398.538418 97.974 164.6113
2415.919216 97.889 165.0826
2433.425962 97.808 165.5746
2451.059570 97.730 166.0872
2468.820958 97.656 166.6200
2486.711052 97.587 167.1725
2504.730786 97.523 167.7440
2522.881098 97.465 168.3334
2541.162934 97.414 168.9398
2559.577248 97.371 169.5619
2578.125000 97.338 170.1985
2596.807157 97.316 170.8484
2615.624692 97.306 171.5102
2634.578586 97.310 172.1821
2653.669829 97.329 172.8622
2672.899414 97.364 173.5480
2692.268345 97.414 174.2362
2711.777632 97.480 174.9231
2731.428290 97.562 175.6046
2751.221345 97.657 176.2763
2771.157829 97.765 176.9343
2791.238781 97.882 177.5749
2811.465248 98.007 178.1954
2831.838284 98.136 178.7939
2852.358952 98.268 179.3695
2873.028321 98.398 179.9224
2893.847468 98.526 -179.5466
2914.817480 98.649 -179.0358
2935.939449 98.765 -178.5429
2957.214476 98.874 -178.0655
2978.643672 98.974 -177.6011
3000.228152 99.065 -177.1473
3021.969041 99.147 -176.7022
3043.867475 99.219 -176.2641
3065.924593 99.284 -175.8319
3088.141547 99.340 -175.4047
3110.519493 99.389 -174.9819
3133.059600 99.431 -174.5630
3155.763041 99.467 -174.1474
3178.631001 99.499 -173.7346
3201.664672 99.526 -173.3239
3224.865254 99.549 -172.9146
3248.233957 99.570 -172.5056
3271.771999 99.589 -172.0962
3295.480608 99.606 -171.6851
3319.361019 99.622 -171.2711
3343.414477 99.638 -170.8531
3367.642236 99.653 -170.4296
3392.045560 99.669 -169.9989
3416.625721 99.686 -169.5592
3441.383999 99.705 -169.1084
3466.321686 99.726 -168.6445
3491.440082 99.750 -168.1651
3516.740496 99.780 -167.6684
3542.224247 99.815 -167.1533
3567.892664 99.857 -166.6194
3593.747085 99.908 -166.0677
3619.788858 99.969 -165.5003
3646.019340 100.040 -164.9205
3672.439900 100.122 -164.3326
3699.051913 100.216 -163.7418
3725.856768 100.322 -163.1533
3752.855862 100.440 -162.5722
3780.050603 100.569 -162.0033
3807.442408 100.709 -161.4506
3835.032705 100.859 -160.9175
3862.822933 101.019 -160.4068
3890.814540 101.187 -159.9210
3919.008986 101.363 -159.4621
3947.407741 101.547 -159.0321
3976.012284 101.737 -158.6328
4004.824108 101.932 -158.2659
4033.844715 102.132 -157.9334
4063.075616 102.335 -157.6368
4092.518337 102.541 -157.3774
4122.174412 102.749 -157.1561
4152.045387 102.958 -156.9734
4182.132820 103.169 -156.8295
4212.438278 103.380 -156.7244
4242.963342 103.591 -156.6585
4273.709604 103.803 -156.6327
4304.678665 104.016 -156.6492
4335.872141 104.229 -156.7110
4367.291658 104.443 -156.8228
4398.938854 104.657 -156.9902
4430.815378 104.870 -157.2200
4462.922893 105.082 -157.5196
4495.263072 105.292 -157.8971
4527.837601 105.499 -158.3604
4560.648179 105.701 -158.9171
4593.696515 105.897 -159.5744
4626.984334 106.085 -160.3379
4660.513370 106.265 -161.2120
4694.285371 106.433 -162.1992
4728.302098 106.588 -163.2994
4762.565324 106.729 -164.5103
4797.076835 106.855 -165.8264
4831.838432 106.963 -167.2396
4866.851925 107.052 -168.7390
4902.119140 107.121 -170.3111
4937.641916 107.169 -171.9403
4973.422105 107.195 -173.6090
5009.461572 107.200 -175.2987
5045.762195 107.182 -176.9898
5082.325868 107.143 -178.6628
5119.154496 107.083 179.7016
5156.250000 107.004 178.1219
5193.614313 106.906 176.6153
5231.249383 106.792 175.1974
5269.157173 106.664 173.8819
5307.339658 106.524 172.6800
5345.798829 106.374 171.6005
5384.536691 106.218 170.6494
5423.555263 106.058 169.8298
5462.856580 105.898 169.1417
5502.442691 105.741 168.5817
5542.315659 105.590 168.1432
5582.477563 105.450 167.8156
5622.930497 105.323 167.5852
5663.676569 105.214 167.4346
5704.717904 105.125 167.3434
5746.056642 105.059 167.2890
5787.694937 105.018 167.2469
5829.634960 105.002 167.1920
5871.878898 105.012 167.0993
5914.428953 105.047 166.9452
5957.287343 105.104 166.7082
6000.456303 105.179 166.3695
6043.938083 105.270 165.9139
6087.734950 105.370 165.3299
6131.849187 105.474 164.6096
6176.283094 105.579 163.7491
6221.038987 105.677 162.7479
6266.119200 105.765 161.6088
6311.526083 105.838 160.3377
6357.262002 105.891 158.9428
6403.329344 105.922 157.4348
6449.730508 105.927 155.8260
6496.467914 105.904 154.1309
6543.543998 105.850 152.3647
6590.961215 105.765 150.5444
6638.722037 105.648 148.6877
6686.828954 105.498 146.8130
6735.284473 105.315 144.9395
6784.091120 105.101 143.0863
6833.251441 104.855 141.2729
6882.767998 104.581 139.5181
6932.643372 104.278 137.8402
6982.880164 103.950 136.2564
7033.480992 103.598 134.7826
7084.448495 103.226 133.4332
7135.785329 102.836 132.2206
7187.494171 102.431 131.1553
7239.577717 102.015 130.2451
7292.038681 101.590 129.4950
7344.879799 101.160 128.9069
7398.103826 100.727 128.4782
7451.713536 100.296 128.2018
7505.711724 99.870 128.0650
7560.101205 99.450 128.0483
7614.884815 99.041 128.1249
7670.065409 98.644 128.2600
7725.645865 98.262 128.4104
7781.629080 97.896 128.5249
7838.017972 97.549 128.5452
7894.815481 97.219 128.4083
7952.024569 96.908 128.0491
8009.648217 96.611 127.4048
8067.689429 96.326 126.4189
8126.151233 96.046 125.0455
8185.036674 95.765 123.2524
8244.348824 95.476 121.0204
8304.090774 95.175 118.3397
8364.265639 94.863 115.1986
8424.876556 94.545 111.5571
8485.926684 94.233 107.2842
8547.419207 93.951 101.9595
8609.357330 93.726 93.9538
8671.744282 93.587 71.1141
8734.583316 93.557 -47.6921
8797.877707 93.648 -72.8333
8861.630756 93.853 -81.2233
8925.845785 94.154 -86.8673
8990.526143 94.524 -91.5751
9055.675202 94.932 -95.8453
9121.296357 95.352 -99.8680
9187.393031 95.764 -103.7284
9253.968668 96.152 -107.4683
9321.026740 96.506 -111.1083
9388.570742 96.818 -114.6582
9456.604196 97.084 -118.1224
9525.130648 97.302 -121.5026
9594.153671 97.471 -124.7991
9663.676863 97.591 -128.0123
9733.703850 97.663 -131.1418
9804.238280 97.686 -134.1864
9875.283832 97.663 -137.1440
9946.844210 97.595 -140.0106
10018.923143 97.484 -142.7808
10091.524390 97.331 -145.4471
10164.651736 97.141 -148.0016
10238.308993 96.914 -150.4355
10312.500000 96.656 -152.7405
10387.228626 96.371 -154.9092
10462.498767 96.061 -156.9362
10538.314345 95.732 -158.8182
10614.679315 95.387 -160.5546
10691.597657 95.030 -162.1479
10769.073381 94.664 -163.6037
10847.110526 94.291 -164.9302
10925.713161 93.914 -166.1384
11004.885382 93.533 -167.2412
11084.631318 93.149 -168.2542
11164.955126 92.763 -169.1948
11245.860993 92.374 -170.0830
11327.353138 91.982 -170.9417
11409.435808 91.588 -171.7966
11492.113283 91.194 -172.6776
11575.389873 90.800 -173.6185
11659.269920 90.409 -174.6576
11743.757796 90.023 -175.8370
11828.857906 89.645 -177.2028
11914.574686 89.275 -178.8027
12000.912606 88.916 179.3154
12087.876166 88.564 177.1060
12175.469900 88.218 174.5281
12263.698373 87.872 171.5460
12352.566187 87.519 168.1290
12442.077974 87.152 164.2483
12532.238400 86.763 159.8703
12623.052165 86.348 154.9457
12714.524005 85.903 149.3905
12806.658687 85.428 143.0552
12899.461015 84.926 135.6683
12992.935827 84.405 126.7330
13087.087996 83.877 115.3260
13181.922430 83.357 99.7867
13277.444074 82.862 77.7721
13373.657907 82.412 49.1695
13470.568945 82.021 20.8610
13568.182241 81.701 -0.6697
13666.502883 81.454 -15.8741
13765.535996 81.275 -27.1118
13865.286744 81.152 -36.0178
13965.760328 81.066 -43.5142
14066.961984 80.998 -50.1148
14168.896989 80.927 -56.1133
14271.570658 80.836 -61.6777
14374.988342 80.709 -66.8987
14479.155433 80.532 -71.8145
14584.077362 80.296 -76.4229
14689.759598 79.992 -80.6880
14796.207652 79.617 -84.5436
14903.427072 79.170 -87.8941
15011.423448 78.652 -90.6143
15120.202410 78.071 -92.5498
15229.769630 77.439 -93.5197
15340.130819 76.774 -93.3297
15451.291730 76.102 -91.8102
15563.258160 75.456 -88.8991
15676.035944 74.876 -84.7645
15789.630962 74.403 -79.9003
15904.049137 74.069 -75.0614
16019.296433 73.890 -71.0060
16135.378859 73.854 -68.2363
16252.302465 73.932 -66.9289
16370.073348 74.082 -67.0276
16488.697648 74.261 -68.3664
16608.181548 74.430 -70.7499
16728.531278 74.560 -73.9904
16849.753112 74.630 -77.9191
16971.853368 74.626 -82.3881
17094.838414 74.542 -87.2685
17218.714660 74.373 -92.4499
17343.488565 74.123 -97.8391
17469.166632 73.797 -103.3574
17595.755415 73.402 -108.9359
17723.261512 72.949 -114.5066
17851.691571 72.449 -119.9893
17981.052287 71.917 -125.2684
18111.350404 71.370 -130.1544
18242.592715 70.826 -134.3082
18374.786062 70.308 -137.0752
18507.937336 69.843 -137.0721
18642.053479 69.456 -131.1133
18777.141484 69.171 -112.7430
18913.208391 69.002 -82.4655
19050.261296 68.951 -61.5206
19188.307342 69.008 -53.4379
19327.353727 69.147 -51.4965
19467.407699 69.336 -52.0908
19608.476560 69.539 -53.6194
19750.567664 69.723 -55.2813
19893.688419 69.860 -56.6173
20037.846286 69.934 -57.3528
