* Measurement data measured by REW V5.31.3
* Source: EXCL: Headset (USB-C to 3.5mm Headphone Jack Adapter), MICROPHONE (Master Volume), 0, volume: 0.170
* Format: 256k Log Swept Sine, 1 sweep at -12.0 dBFS with no timing reference
* Dated: Feb 9, 2025 1:39:50 PM
* REW Settings:
*  C-weighting compensation: Off
*  Target level: 75.0 dB
* Note: ; 
* Measurement: Ouroboros (Golem Mod) L1
* Smoothing: 1/6 octave
* Frequency Step: 96 ppo
* Start Frequency: 20.0 Hz
*
* Freq(Hz) SPL(dB) Phase(degrees)
20.141602 106.351 -114.4453
20.287556 106.328 -114.5810
20.434568 106.295 -114.7664
20.582645 106.252 -114.9998
20.731796 106.198 -115.2802
20.882027 106.132 -115.6070
21.033346 106.056 -115.9799
21.185763 105.969 -116.3988
21.339284 105.871 -116.8635
21.493917 105.766 -117.3730
21.649671 105.653 -117.9253
21.806553 105.536 -118.5170
21.964572 105.415 -119.1432
22.123737 105.295 -119.7978
22.284054 105.176 -120.4731
22.445534 105.061 -121.1608
22.608183 104.952 -121.8523
22.772012 104.851 -122.5390
22.937027 104.758 -123.2132
23.103238 104.674 -123.8683
23.270654 104.600 -124.4993
23.439282 104.536 -125.1032
23.609133 104.482 -125.6788
23.780215 104.438 -126.2270
23.952536 104.402 -126.7504
24.126106 104.374 -127.2534
24.300934 104.354 -127.7415
24.477028 104.339 -128.2212
24.654399 104.329 -128.6994
24.833055 104.323 -129.1832
25.013005 104.319 -129.6791
25.194260 104.315 -130.1929
25.376828 104.312 -130.7289
25.560719 104.308 -131.2901
25.745942 104.302 -131.8772
25.932508 104.293 -132.4894
26.120426 104.281 -133.1236
26.309705 104.266 -133.7754
26.500356 104.248 -134.4390
26.692388 104.226 -135.1080
26.885812 104.201 -135.7761
27.080638 104.173 -136.4373
27.276876 104.141 -137.0866
27.474535 104.107 -137.7204
27.673627 104.071 -138.3363
27.874161 104.034 -138.9333
28.076149 103.998 -139.5113
28.279600 103.963 -140.0711
28.484526 103.934 -140.6140
28.690937 103.911 -141.1416
28.898843 103.900 -141.6554
29.108256 103.902 -142.1571
29.319186 103.921 -142.6480
29.531645 103.958 -143.1290
29.745644 104.013 -143.6004
29.961193 104.085 -144.0617
30.178304 104.172 -144.5111
30.396989 104.270 -144.9458
30.617258 104.372 -145.3618
30.839123 104.474 -145.7545
31.062596 104.570 -146.1196
31.287688 104.653 -146.4534
31.514412 104.718 -146.7542
31.742778 104.761 -147.0230
31.972800 104.779 -147.2637
32.204488 104.768 -147.4829
32.437855 104.728 -147.6892
32.672913 104.658 -147.8923
32.909674 104.559 -148.1013
33.148151 104.432 -148.3232
33.388356 104.279 -148.5621
33.630302 104.104 -148.8187
33.874001 103.910 -149.0899
34.119466 103.701 -149.3695
34.366710 103.484 -149.6496
34.615745 103.262 -149.9215
34.866585 103.041 -150.1770
35.119243 102.824 -150.4094
35.373731 102.618 -150.6144
35.630064 102.424 -150.7904
35.888254 102.245 -150.9380
36.148315 102.085 -151.0605
36.410261 101.944 -151.1624
36.674104 101.825 -151.2493
36.939860 101.726 -151.3270
37.207542 101.651 -151.4003
37.477163 101.598 -151.4736
37.748738 101.568 -151.5494
38.022281 101.562 -151.6295
38.297806 101.579 -151.7143
38.575327 101.620 -151.8038
38.854860 101.684 -151.8973
39.136419 101.769 -151.9944
39.420017 101.876 -152.0949
39.705671 102.003 -152.1992
39.993395 102.148 -152.3080
40.283203 102.311 -152.4230
40.575112 102.489 -152.5461
40.869136 102.682 -152.6792
41.165290 102.886 -152.8238
41.463591 103.100 -152.9801
41.764053 103.323 -153.1472
42.066693 103.551 -153.3229
42.371525 103.782 -153.5048
42.678567 104.014 -153.6904
42.987834 104.245 -153.8781
43.299341 104.472 -154.0672
43.613106 104.694 -154.2574
43.929145 104.907 -154.4491
44.247473 105.110 -154.6423
44.568109 105.300 -154.8376
44.891068 105.478 -155.0356
45.216367 105.641 -155.2379
45.544023 105.788 -155.4463
45.874054 105.919 -155.6630
46.206476 106.032 -155.8892
46.541307 106.127 -156.1252
46.878565 106.203 -156.3702
47.218266 106.261 -156.6228
47.560429 106.302 -156.8817
47.905072 106.327 -157.1458
48.252212 106.336 -157.4140
48.601867 106.331 -157.6846
48.954056 106.313 -157.9550
49.308798 106.284 -158.2217
49.666109 106.246 -158.4812
50.026010 106.201 -158.7305
50.388520 106.151 -158.9682
50.753656 106.097 -159.1940
51.121437 106.041 -159.4079
51.491884 105.986 -159.6100
51.865016 105.933 -159.8000
52.240851 105.884 -159.9779
52.619410 105.839 -160.1441
53.000712 105.801 -160.2998
53.384777 105.768 -160.4470
53.771625 105.742 -160.5874
54.161276 105.721 -160.7223
54.553751 105.705 -160.8528
54.949070 105.692 -160.9798
55.347254 105.681 -161.1046
55.748323 105.671 -161.2292
56.152298 105.662 -161.3557
56.559201 105.652 -161.4859
56.969052 105.640 -161.6211
57.381873 105.627 -161.7617
57.797686 105.613 -161.9077
58.216512 105.597 -162.0596
58.638373 105.580 -162.2180
59.063291 105.563 -162.3843
59.491288 105.547 -162.5594
59.922386 105.531 -162.7441
60.356608 105.516 -162.9386
60.793977 105.503 -163.1426
61.234515 105.490 -163.3558
61.678246 105.479 -163.5782
62.125192 105.471 -163.8109
62.575377 105.464 -164.0554
63.028824 105.461 -164.3135
63.485557 105.460 -164.5868
63.945599 105.462 -164.8764
64.408975 105.467 -165.1825
64.875709 105.476 -165.5046
65.345825 105.488 -165.8420
65.819348 105.504 -166.1944
66.296302 105.523 -166.5616
66.776713 105.546 -166.9441
67.260604 105.572 -167.3424
67.748002 105.600 -167.7569
68.238932 105.630 -168.1879
68.733420 105.661 -168.6349
69.231490 105.693 -169.0975
69.733170 105.725 -169.5747
70.238485 105.758 -170.0658
70.747463 105.791 -170.5705
71.260128 105.824 -171.0889
71.776508 105.857 -171.6217
72.296630 105.890 -172.1701
72.820521 105.923 -172.7352
73.348209 105.955 -173.3176
73.879720 105.987 -173.9173
74.415083 106.018 -174.5334
74.954326 106.047 -175.1642
75.497475 106.074 -175.8070
76.044561 106.099 -176.4591
76.595612 106.122 -177.1173
77.150655 106.140 -177.7792
77.709720 106.155 -178.4429
78.272837 106.166 -179.1074
78.840034 106.172 -179.7726
79.411342 106.172 179.5607
79.986789 106.167 178.8915
80.566406 106.155 178.2181
81.150224 106.138 177.5392
81.738272 106.115 176.8535
82.330581 106.086 176.1602
82.927182 106.052 175.4590
83.528107 106.015 174.7508
84.133386 105.976 174.0369
84.743051 105.938 173.3194
85.357134 105.902 172.6010
85.975667 105.872 171.8848
86.598682 105.851 171.1733
87.226212 105.843 170.4693
87.858289 105.851 169.7744
88.494946 105.879 169.0897
89.136217 105.927 168.4160
89.782135 105.997 167.7532
90.432733 106.089 167.1012
91.088046 106.201 166.4598
91.748108 106.330 165.8286
92.412952 106.471 165.2071
93.082615 106.620 164.5947
93.757130 106.772 163.9907
94.436533 106.920 163.3942
95.120859 107.060 162.8044
95.810144 107.187 162.2205
96.504423 107.300 161.6421
97.203734 107.395 161.0689
97.908112 107.471 160.5010
98.617595 107.529 159.9387
99.332219 107.570 159.3827
100.052021 107.594 158.8336
100.777039 107.604 158.2922
101.507311 107.602 157.7587
102.242875 107.589 157.2332
102.983769 107.568 156.7155
103.730032 107.540 156.2052
104.481702 107.506 155.7017
105.238820 107.466 155.2046
106.001424 107.419 154.7139
106.769554 107.364 154.2299
107.543250 107.301 153.7532
108.322553 107.227 153.2848
109.107503 107.140 152.8260
109.898141 107.040 152.3780
110.694508 106.926 151.9422
111.496646 106.797 151.5196
112.304596 106.653 151.1111
113.118402 106.495 150.7169
113.938104 106.325 150.3370
114.763747 106.144 149.9714
115.595372 105.955 149.6194
116.433024 105.760 149.2810
117.276746 105.560 148.9559
118.126581 105.359 148.6442
118.982575 105.157 148.3463
119.844772 104.957 148.0626
120.713217 104.758 147.7936
121.587954 104.562 147.5395
122.469031 104.367 147.3005
123.356492 104.173 147.0765
124.250384 103.979 146.8676
125.150753 103.783 146.6736
126.057647 103.584 146.4946
126.971113 103.380 146.3309
127.891198 103.171 146.1830
128.817950 102.955 146.0518
129.751418 102.732 145.9386
130.691651 102.501 145.8443
131.638696 102.265 145.7703
132.592604 102.022 145.7173
133.553425 101.776 145.6863
134.521208 101.528 145.6780
135.496004 101.282 145.6932
136.477864 101.040 145.7326
137.466839 100.806 145.7969
138.462981 100.584 145.8867
139.466340 100.376 146.0026
140.476971 100.186 146.1448
141.494925 100.014 146.3137
142.520256 99.862 146.5098
143.553016 99.728 146.7336
144.593260 99.611 146.9855
145.641043 99.507 147.2659
146.696418 99.414 147.5751
147.759441 99.327 147.9126
148.830166 99.243 148.2779
149.908651 99.159 148.6698
150.994951 99.073 149.0874
152.089123 98.983 149.5296
153.191223 98.890 149.9954
154.301310 98.792 150.4841
155.419441 98.691 150.9950
156.545674 98.590 151.5276
157.680069 98.489 152.0814
158.822683 98.391 152.6555
159.973578 98.297 153.2491
161.132813 98.209 153.8607
162.300447 98.128 154.4886
163.476543 98.054 155.1306
164.661162 97.989 155.7843
165.854364 97.932 156.4473
167.056213 97.883 157.1175
168.266772 97.843 157.7933
169.486102 97.812 158.4737
170.714268 97.790 159.1581
171.951334 97.777 159.8466
173.197364 97.772 160.5392
174.452424 97.777 161.2364
175.716578 97.791 161.9380
176.989893 97.814 162.6443
178.272434 97.845 163.3546
179.564270 97.883 164.0676
180.865467 97.929 164.7809
182.176092 97.980 165.4911
183.496216 98.037 166.1937
184.825905 98.098 166.8831
186.165229 98.163 167.5533
187.514259 98.231 168.1982
188.873065 98.301 168.8124
190.241717 98.375 169.3912
191.620287 98.450 169.9310
193.008847 98.527 170.4300
194.407468 98.605 170.8872
195.816225 98.684 171.3033
197.235190 98.763 171.6795
198.664438 98.843 172.0180
200.104042 98.921 172.3216
201.554078 98.997 172.5929
203.014622 99.072 172.8347
204.485750 99.143 173.0494
205.967538 99.210 173.2393
207.460064 99.274 173.4062
208.963405 99.333 173.5518
210.477640 99.387 173.6773
212.002848 99.438 173.7840
213.539108 99.485 173.8728
215.086500 99.528 173.9445
216.645105 99.569 174.0000
218.215005 99.606 174.0399
219.796281 99.640 174.0647
221.389015 99.671 174.0753
222.993292 99.698 174.0719
224.609193 99.721 174.0553
226.236804 99.738 174.0259
227.876209 99.750 173.9845
229.527494 99.755 173.9318
231.190745 99.753 173.8685
232.866048 99.744 173.7959
234.553491 99.729 173.7150
236.253163 99.709 173.6271
237.965150 99.682 173.5338
239.689544 99.652 173.4361
241.426433 99.619 173.3354
243.175909 99.583 173.2328
244.938062 99.546 173.1289
246.712984 99.510 173.0238
248.500768 99.474 172.9174
250.301507 99.440 172.8091
252.115295 99.408 172.6982
253.942226 99.379 172.5836
255.782396 99.354 172.4642
257.635901 99.334 172.3391
259.502837 99.318 172.2076
261.383301 99.308 172.0693
263.277392 99.304 171.9241
265.185209 99.305 171.7721
267.106850 99.311 171.6141
269.042417 99.323 171.4507
270.992009 99.340 171.2831
272.955729 99.360 171.1121
274.933678 99.385 170.9390
276.925961 99.412 170.7646
278.932681 99.441 170.5897
280.953942 99.471 170.4149
282.989850 99.503 170.2407
285.040511 99.536 170.0672
287.106032 99.570 169.8943
289.186521 99.607 169.7220
291.282086 99.646 169.5497
293.392836 99.690 169.3774
295.518881 99.738 169.2047
297.660333 99.790 169.0316
299.817302 99.847 168.8580
301.989902 99.907 168.6844
304.178245 99.970 168.5113
306.382446 100.033 168.3394
308.602620 100.096 168.1695
310.838882 100.156 168.0026
313.091348 100.212 167.8397
315.360137 100.261 167.6815
317.645367 100.303 167.5292
319.947156 100.337 167.3834
322.265625 100.362 167.2449
324.600895 100.376 167.1143
326.953086 100.379 166.9919
329.322323 100.372 166.8777
331.708729 100.354 166.7717
334.112427 100.324 166.6735
336.533543 100.284 166.5831
338.972204 100.233 166.5001
341.428536 100.172 166.4244
343.902668 100.103 166.3563
346.394729 100.026 166.2956
348.904848 99.944 166.2427
351.433156 99.858 166.1978
353.979786 99.770 166.1613
356.544869 99.684 166.1332
359.128540 99.601 166.1140
361.730934 99.525 166.1037
364.352185 99.458 166.1025
366.992431 99.404 166.1104
369.651810 99.366 166.1271
372.330459 99.344 166.1525
375.028519 99.341 166.1862
377.746130 99.356 166.2274
380.483434 99.389 166.2758
383.240574 99.440 166.3304
386.017693 99.505 166.3908
388.814937 99.583 166.4560
391.632450 99.672 166.5252
394.470380 99.767 166.5978
397.328875 99.867 166.6731
400.208084 99.969 166.7503
403.108157 100.072 166.8289
406.029245 100.175 166.9084
408.971500 100.276 166.9882
411.935076 100.376 167.0678
414.920127 100.475 167.1467
417.926810 100.572 167.2242
420.955280 100.670 167.2994
424.005695 100.767 167.3716
427.078215 100.866 167.4398
430.173000 100.967 167.5028
433.290211 101.069 167.5596
436.430010 101.172 167.6089
439.592562 101.276 167.6494
442.778031 101.380 167.6798
445.986583 101.482 167.6988
449.218386 101.581 167.7051
452.473607 101.674 167.6974
455.752418 101.761 167.6747
459.054987 101.840 167.6360
462.381489 101.910 167.5804
465.732096 101.970 167.5075
469.106983 102.019 167.4167
472.506325 102.058 167.3079
475.930301 102.087 167.1811
479.379088 102.107 167.0363
482.852867 102.118 166.8736
486.351817 102.121 166.6935
489.876123 102.118 166.4961
493.425968 102.109 166.2820
497.001536 102.093 166.0519
500.603014 102.073 165.8069
504.230589 102.046 165.5483
507.884452 102.014 165.2779
511.564792 101.976 164.9977
515.271802 101.932 164.7105
519.005673 101.883 164.4192
522.766602 101.829 164.1271
526.554785 101.771 163.8374
530.370418 101.712 163.5532
534.213700 101.653 163.2769
538.084833 101.596 163.0100
541.984018 101.545 162.7531
545.911457 101.501 162.5056
549.867357 101.464 162.2662
553.851922 101.436 162.0331
557.865362 101.415 161.8048
561.907884 101.401 161.5800
565.979700 101.392 161.3580
570.081022 101.387 161.1388
574.212064 101.381 160.9228
578.373042 101.375 160.7106
582.564171 101.365 160.5032
586.785671 101.349 160.3012
591.037762 101.328 160.1055
595.320665 101.300 159.9167
599.634604 101.263 159.7356
603.979804 101.219 159.5624
608.356491 101.167 159.3976
612.764893 101.107 159.2414
617.205240 101.040 159.0940
621.677763 100.968 158.9557
626.182696 100.892 158.8265
630.720274 100.813 158.7068
635.290733 100.734 158.5966
639.894312 100.656 158.4958
644.531250 100.581 158.4043
649.201789 100.512 158.3220
653.906173 100.449 158.2483
658.644647 100.393 158.1829
663.417457 100.344 158.1251
668.224854 100.303 158.0745
673.067086 100.268 158.0304
677.944408 100.238 157.9923
682.857073 100.211 157.9597
687.805336 100.185 157.9319
692.789457 100.160 157.9088
697.809695 100.134 157.8898
702.866312 100.104 157.8748
707.959571 100.071 157.8634
713.089738 100.034 157.8557
718.257080 99.992 157.8515
723.461867 99.946 157.8511
728.704370 99.896 157.8547
733.984862 99.841 157.8622
739.303619 99.784 157.8741
744.660918 99.724 157.8904
750.057038 99.663 157.9112
755.492260 99.601 157.9368
760.966869 99.538 157.9671
766.481148 99.475 158.0024
772.035387 99.410 158.0425
777.629873 99.345 158.0873
783.264900 99.277 158.1368
788.940760 99.206 158.1907
794.657750 99.132 158.2486
800.416168 99.054 158.3103
806.216313 98.970 158.3754
812.058489 98.881 158.4437
817.943000 98.786 158.5150
823.870152 98.685 158.5889
829.840255 98.578 158.6653
835.853619 98.467 158.7436
841.910559 98.353 158.8232
848.011390 98.235 158.9032
854.156430 98.115 158.9824
860.346000 97.995 159.0591
866.580422 97.876 159.1316
872.860020 97.758 159.1979
879.185124 97.643 159.2562
885.556062 97.531 159.3047
891.973166 97.424 159.3421
898.436771 97.322 159.3679
904.947215 97.226 159.3822
911.504835 97.137 159.3861
918.109975 97.054 159.3815
924.762978 96.978 159.3708
931.464192 96.909 159.3566
938.213966 96.847 159.3419
945.012651 96.791 159.3297
951.860602 96.741 159.3238
958.758176 96.695 159.3282
965.705733 96.653 159.3483
972.703635 96.613 159.3906
979.752246 96.576 159.4626
986.851935 96.540 159.5729
994.003071 96.506 159.7307
1001.206027 96.476 159.9455
1008.461179 96.449 160.2266
1015.768904 96.429 160.5825
1023.129584 96.419 161.0206
1030.543603 96.421 161.5457
1038.011347 96.440 162.1598
1045.533205 96.480 162.8602
1053.109569 96.544 163.6386
1060.740836 96.636 164.4791
1068.427401 96.756 165.3578
1076.169666 96.906 166.2424
1083.968035 97.083 167.0938
1091.822915 97.284 167.8699
1099.734713 97.501 168.5299
1107.703844 97.728 169.0405
1115.730723 97.956 169.3800
1123.815768 98.179 169.5416
1131.959400 98.388 169.5329
1140.162045 98.580 169.3739
1148.424129 98.750 169.0928
1156.746083 98.898 168.7218
1165.128342 99.024 168.2932
1173.571343 99.129 167.8364
1182.075524 99.217 167.3757
1190.641331 99.291 166.9304
1199.269209 99.353 166.5137
1207.959608 99.408 166.1343
1216.712981 99.457 165.7964
1225.529785 99.503 165.5009
1234.410479 99.547 165.2463
1243.355526 99.590 165.0294
1252.365393 99.632 164.8459
1261.440549 99.673 164.6910
1270.581467 99.713 164.5598
1279.788624 99.752 164.4476
1289.062500 99.789 164.3500
1298.403578 99.823 164.2632
1307.812346 99.855 164.1841
1317.289293 99.884 164.1100
1326.834914 99.911 164.0391
1336.449707 99.935 163.9699
1346.134173 99.957 163.9017
1355.888816 99.976 163.8339
1365.714145 99.993 163.7663
1375.610673 100.007 163.6990
1385.578915 100.019 163.6321
1395.619391 100.029 163.5656
1405.732624 100.036 163.4995
1415.919142 100.041 163.4338
1426.179476 100.044 163.3683
1436.514160 100.045 163.3031
1446.923734 100.046 163.2382
1457.408740 100.046 163.1735
1467.969724 100.047 163.1095
1478.607238 100.049 163.0463
1489.321836 100.053 162.9839
1500.114076 100.060 162.9226
1510.984521 100.070 162.8621
1521.933737 100.083 162.8021
1532.962297 100.100 162.7424
1544.070773 100.120 162.6825
1555.259747 100.142 162.6221
1566.529800 100.167 162.5609
1577.881521 100.193 162.4990
1589.315501 100.220 162.4361
1600.832336 100.247 162.3725
1612.432627 100.273 162.3083
1624.116978 100.299 162.2433
1635.886000 100.323 162.1779
1647.740304 100.347 162.1116
1659.680509 100.369 162.0443
1671.707238 100.389 161.9760
1683.821118 100.409 161.9061
1696.022780 100.428 161.8345
1708.312860 100.447 161.7609
1720.692000 100.465 161.6851
1733.160843 100.482 161.6069
1745.720041 100.500 161.5263
1758.370248 100.517 161.4435
1771.112124 100.532 161.3587
1783.946332 100.547 161.2724
1796.873543 100.559 161.1854
1809.894429 100.569 161.0983
1823.009670 100.576 161.0122
1836.219950 100.579 160.9279
1849.525956 100.579 160.8466
1862.928384 100.575 160.7690
1876.427931 100.568 160.6960
1890.025301 100.558 160.6284
1903.721204 100.546 160.5666
1917.516352 100.530 160.5113
1931.411466 100.512 160.4630
1945.407270 100.491 160.4221
1959.504493 100.466 160.3893
1973.703870 100.438 160.3652
1988.006142 100.405 160.3505
2002.412054 100.366 160.3457
2016.922357 100.320 160.3517
2031.537808 100.267 160.3694
2046.259169 100.205 160.3997
2061.087206 100.133 160.4436
2076.022694 100.053 160.5025
2091.066410 99.963 160.5779
2106.219139 99.864 160.6710
2121.481671 99.756 160.7832
2136.854802 99.641 160.9159
2152.339333 99.520 161.0699
2167.936071 99.395 161.2462
2183.645829 99.267 161.4449
2199.469427 99.138 161.6664
2215.407689 99.009 161.9104
2231.461446 98.881 162.1763
2247.631536 98.757 162.4635
2263.918800 98.636 162.7709
2280.324089 98.519 163.0978
2296.848258 98.407 163.4431
2313.492167 98.299 163.8060
2330.256685 98.196 164.1860
2347.142685 98.097 164.5827
2364.151049 98.003 164.9959
2381.282662 97.912 165.4257
2398.538418 97.826 165.8723
2415.919216 97.744 166.3359
2433.425962 97.665 166.8167
2451.059570 97.592 167.3147
2468.820958 97.523 167.8299
2486.711052 97.459 168.3619
2504.730786 97.401 168.9103
2522.881098 97.350 169.4741
2541.162934 97.307 170.0525
2559.577248 97.272 170.6445
2578.125000 97.247 171.2486
2596.807157 97.233 171.8637
2615.624692 97.230 172.4880
2634.578586 97.241 173.1199
2653.669829 97.266 173.7570
2672.899414 97.306 174.3970
2692.268345 97.360 175.0367
2711.777632 97.430 175.6729
2731.428290 97.514 176.3018
2751.221345 97.611 176.9198
2771.157829 97.719 177.5231
2791.238781 97.837 178.1086
2811.465248 97.962 178.6738
2831.838284 98.091 179.2167
2852.358952 98.222 179.7365
2873.028321 98.352 -179.7671
2893.847468 98.479 -179.2933
2914.817480 98.601 -178.8410
2935.939449 98.716 -178.4084
2957.214476 98.822 -177.9931
2978.643672 98.919 -177.5925
3000.228152 99.006 -177.2041
3021.969041 99.083 -176.8251
3043.867475 99.150 -176.4530
3065.924593 99.207 -176.0858
3088.141547 99.255 -175.7214
3110.519493 99.294 -175.3586
3133.059600 99.327 -174.9959
3155.763041 99.353 -174.6326
3178.631001 99.375 -174.2679
3201.664672 99.392 -173.9011
3224.865254 99.406 -173.5319
3248.233957 99.417 -173.1597
3271.771999 99.427 -172.7841
3295.480608 99.436 -172.4046
3319.361019 99.444 -172.0207
3343.414477 99.452 -171.6315
3367.642236 99.459 -171.2360
3392.045560 99.468 -170.8328
3416.625721 99.477 -170.4199
3441.383999 99.488 -169.9951
3466.321686 99.502 -169.5559
3491.440082 99.519 -169.1000
3516.740496 99.540 -168.6255
3542.224247 99.568 -168.1315
3567.892664 99.604 -167.6178
3593.747085 99.648 -167.0854
3619.788858 99.702 -166.5363
3646.019340 99.767 -165.9734
3672.439900 99.843 -165.4007
3699.051913 99.932 -164.8227
3725.856768 100.032 -164.2445
3752.855862 100.144 -163.6712
3780.050603 100.267 -163.1081
3807.442408 100.401 -162.5597
3835.032705 100.545 -162.0299
3862.822933 100.698 -161.5220
3890.814540 100.859 -161.0383
3919.008986 101.028 -160.5807
3947.407741 101.204 -160.1507
3976.012284 101.386 -159.7495
4004.824108 101.573 -159.3786
4033.844715 101.765 -159.0397
4063.075616 101.962 -158.7348
4092.518337 102.162 -158.4661
4122.174412 102.365 -158.2363
4152.045387 102.571 -158.0482
4182.132820 102.778 -157.9045
4212.438278 102.987 -157.8080
4242.963342 103.197 -157.7612
4273.709604 103.406 -157.7665
4304.678665 103.615 -157.8264
4335.872141 103.822 -157.9428
4367.291658 104.028 -158.1180
4398.938854 104.231 -158.3541
4430.815378 104.432 -158.6535
4462.922893 104.628 -159.0188
4495.263072 104.820 -159.4530
4527.837601 105.007 -159.9595
4560.648179 105.188 -160.5425
4593.696515 105.362 -161.2061
4626.984334 105.529 -161.9550
4660.513370 105.688 -162.7934
4694.285371 105.837 -163.7250
4728.302098 105.976 -164.7521
4762.565324 106.103 -165.8751
4797.076835 106.217 -167.0925
4831.838432 106.316 -168.3999
4866.851925 106.398 -169.7902
4902.119140 106.464 -171.2534
4937.641916 106.510 -172.7768
4973.422105 106.537 -174.3455
5009.461572 106.543 -175.9424
5045.762195 106.529 -177.5492
5082.325868 106.494 -179.1466
5119.154496 106.438 179.2849
5156.250000 106.363 177.7645
5193.614313 106.269 176.3109
5231.249383 106.159 174.9414
5269.157173 106.033 173.6716
5307.339658 105.895 172.5151
5345.798829 105.747 171.4833
5384.536691 105.591 170.5846
5423.555263 105.432 169.8241
5462.856580 105.271 169.2036
5502.442691 105.114 168.7204
5542.315659 104.964 168.3682
5582.477563 104.825 168.1357
5622.930497 104.701 168.0078
5663.676569 104.596 167.9649
5704.717904 104.513 167.9840
5746.056642 104.454 168.0394
5787.694937 104.423 168.1033
5829.634960 104.420 168.1478
5871.878898 104.443 168.1454
5914.428953 104.493 168.0705
5957.287343 104.566 167.9007
6000.456303 104.659 167.6170
6043.938083 104.767 167.2048
6087.734950 104.885 166.6536
6131.849187 105.007 165.9570
6176.283094 105.129 165.1125
6221.038987 105.245 164.1210
6266.119200 105.350 162.9861
6311.526083 105.439 161.7139
6357.262002 105.509 160.3127
6403.329344 105.556 158.7925
6449.730508 105.577 157.1646
6496.467914 105.570 155.4421
6543.543998 105.532 153.6391
6590.961215 105.462 151.7712
6638.722037 105.358 149.8553
6686.828954 105.221 147.9096
6735.284473 105.050 145.9535
6784.091120 104.844 144.0073
6833.251441 104.606 142.0923
6882.767998 104.334 140.2304
6932.643372 104.032 138.4437
6982.880164 103.699 136.7541
7033.480992 103.339 135.1830
7084.448495 102.954 133.7513
7135.785329 102.545 132.4785
7187.494171 102.116 131.3827
7239.577717 101.670 130.4803
7292.038681 101.209 129.7857
7344.879799 100.737 129.3109
7398.103826 100.258 129.0648
7451.713536 99.775 129.0524
7505.711724 99.292 129.2742
7560.101205 98.811 129.7246
7614.884815 98.338 130.3910
7670.065409 97.876 131.2516
7725.645865 97.427 132.2750
7781.629080 96.996 133.4188
7838.017972 96.586 134.6309
7894.815481 96.199 135.8505
7952.024569 95.835 137.0138
8009.648217 95.494 138.0597
8067.689429 95.174 138.9390
8126.151233 94.872 139.6250
8185.036674 94.581 140.1261
8244.348824 94.297 140.4997
8304.090774 94.014 140.8737
8364.265639 93.732 141.4796
8424.876556 93.455 142.7168
8485.926684 93.197 145.2802
8547.419207 92.976 150.4075
8609.357330 92.822 160.2247
8671.744282 92.764 177.2094
8734.583316 92.823 -160.4888
8797.877707 93.005 -141.5894
8861.630756 93.301 -130.2850
8925.845785 93.686 -124.6409
8990.526143 94.128 -122.3198
9055.675202 94.597 -121.9145
9121.296357 95.068 -122.6516
9187.393031 95.522 -124.0956
9253.968668 95.947 -125.9895
9321.026740 96.333 -128.1750
9388.570742 96.678 -130.5510
9456.604196 96.977 -133.0518
9525.130648 97.230 -135.6344
9594.153671 97.437 -138.2711
9663.676863 97.598 -140.9441
9733.703850 97.712 -143.6416
9804.238280 97.781 -146.3557
9875.283832 97.804 -149.0793
9946.844210 97.781 -151.8043
10018.923143 97.713 -154.5210
10091.524390 97.600 -157.2167
10164.651736 97.442 -159.8752
10238.308993 97.242 -162.4778
10312.500000 96.999 -165.0033
10387.228626 96.716 -167.4292
10462.498767 96.397 -169.7331
10538.314345 96.043 -171.8936
10614.679315 95.659 -173.8919
10691.597657 95.248 -175.7123
10769.073381 94.813 -177.3434
10847.110526 94.360 -178.7775
10925.713161 93.890 179.9883
11004.885382 93.407 178.9522
11084.631318 92.915 178.1077
11164.955126 92.415 177.4425
11245.860993 91.912 176.9381
11327.353138 91.407 176.5685
11409.435808 90.905 176.2998
11492.113283 90.408 176.0891
11575.389873 89.921 175.8847
11659.269920 89.448 175.6266
11743.757796 88.995 175.2487
11828.857906 88.564 174.6807
11914.574686 88.159 173.8518
12000.912606 87.783 172.6937
12087.876166 87.435 171.1425
12175.469900 87.114 169.1406
12263.698373 86.814 166.6354
12352.566187 86.530 163.5767
12442.077974 86.254 159.9106
12532.238400 85.981 155.5687
12623.052165 85.702 150.4483
12714.524005 85.415 144.3741
12806.658687 85.118 137.0219
12899.461015 84.813 127.7505
12992.935827 84.505 115.2230
13087.087996 84.204 96.6314
13181.922430 83.919 67.7188
13277.444074 83.661 31.4089
13373.657907 83.439 2.2882
13470.568945 83.259 -16.4875
13568.182241 83.122 -29.1985
13666.502883 83.024 -38.7291
13765.535996 82.957 -46.4853
13865.286744 82.911 -53.1675
13965.760328 82.872 -59.1507
14066.961984 82.829 -64.6480
14168.896989 82.767 -69.7841
14271.570658 82.675 -74.6288
14374.988342 82.543 -79.2142
14479.155433 82.362 -83.5428
14584.077362 82.124 -87.5923
14689.759598 81.825 -91.3174
14796.207652 81.463 -94.6528
14903.427072 81.038 -97.5153
15011.423448 80.555 -99.8090
15120.202410 80.025 -101.4338
15229.769630 79.461 -102.3003
15340.130819 78.885 -102.3535
15451.291730 78.325 -101.6074
15563.258160 77.813 -100.1819
15676.035944 77.382 -98.3229
15789.630962 77.060 -96.3798
15904.049137 76.860 -94.7342
16019.296433 76.780 -93.7100
16135.378859 76.800 -93.5139
16252.302465 76.889 -94.2281
16370.073348 77.015 -95.8397
16488.697648 77.146 -98.2798
16608.181548 77.257 -101.4556
16728.531278 77.328 -105.2687
16849.753112 77.345 -109.6237
16971.853368 77.296 -114.4303
17094.838414 77.176 -119.6038
17218.714660 76.980 -125.0651
17343.488565 76.709 -130.7413
17469.166632 76.367 -136.5686
17595.755415 75.964 -142.4933
17723.261512 75.513 -148.4736
17851.691571 75.034 -154.4772
17981.052287 74.552 -160.4749
18111.350404 74.098 -166.4261
18242.592715 73.708 -172.2513
18374.786062 73.414 -177.7698
18507.937336 73.242 177.4633
18642.053479 73.200 174.7415
18777.141484 73.280 179.4711
18913.208391 73.459 -129.6468
19050.261296 73.703 -70.1879
19188.307342 73.981 -63.5259
19327.353727 74.261 -65.2421
19467.407699 74.522 -68.7687
19608.476560 74.745 -72.4695
19750.567664 74.920 -75.6639
19893.688419 75.039 -77.9778
20037.846286 75.100 -79.1888
