* Measurement data measured by REW V5.31.3
* Source: EXCL: Headset (USB-C to 3.5mm Headphone Jack Adapter), MICROPHONE (Master Volume), 0, volume: 0.170
* Format: 256k Log Swept Sine, 1 sweep at -12.0 dBFS with no timing reference
* Dated: Feb 9, 2025 1:42:53 PM
* REW Settings:
*  C-weighting compensation: Off
*  Target level: 75.0 dB
* Note: ; 
* Measurement: Ouroboros (Golem Mod) L8
* Smoothing: 1/6 octave
* Frequency Step: 96 ppo
* Start Frequency: 20.0 Hz
*
* Freq(Hz) SPL(dB) Phase(degrees)
20.141602 106.080 -114.1499
20.287556 106.075 -114.4542
20.434568 106.068 -114.8593
20.582645 106.055 -115.3498
20.731796 106.037 -115.9094
20.882027 106.010 -116.5222
21.033346 105.974 -117.1737
21.185763 105.928 -117.8514
21.339284 105.871 -118.5449
21.493917 105.803 -119.2453
21.649671 105.723 -119.9454
21.806553 105.632 -120.6390
21.964572 105.530 -121.3204
22.123737 105.419 -121.9846
22.284054 105.300 -122.6275
22.445534 105.174 -123.2454
22.608183 105.043 -123.8364
22.772012 104.909 -124.4000
22.937027 104.776 -124.9379
23.103238 104.645 -125.4539
23.270654 104.519 -125.9542
23.439282 104.401 -126.4467
23.609133 104.293 -126.9403
23.780215 104.195 -127.4443
23.952536 104.109 -127.9672
24.126106 104.036 -128.5154
24.300934 103.974 -129.0931
24.477028 103.924 -129.7012
24.654399 103.884 -130.3377
24.833055 103.854 -130.9982
25.013005 103.831 -131.6763
25.194260 103.816 -132.3648
25.376828 103.807 -133.0567
25.560719 103.804 -133.7456
25.745942 103.807 -134.4267
25.932508 103.814 -135.0965
26.120426 103.825 -135.7528
26.309705 103.839 -136.3935
26.500356 103.854 -137.0162
26.692388 103.869 -137.6175
26.885812 103.881 -138.1921
27.080638 103.888 -138.7334
27.276876 103.889 -139.2336
27.474535 103.883 -139.6848
27.673627 103.870 -140.0807
27.874161 103.850 -140.4174
28.076149 103.826 -140.6949
28.279600 103.800 -140.9177
28.484526 103.774 -141.0950
28.690937 103.752 -141.2397
28.898843 103.738 -141.3680
29.108256 103.734 -141.4970
29.319186 103.742 -141.6434
29.531645 103.765 -141.8216
29.745644 103.802 -142.0428
29.961193 103.852 -142.3138
30.178304 103.916 -142.6368
30.396989 103.988 -143.0096
30.617258 104.067 -143.4258
30.839123 104.147 -143.8749
31.062596 104.223 -144.3437
31.287688 104.290 -144.8168
31.514412 104.343 -145.2777
31.742778 104.378 -145.7101
31.972800 104.389 -146.0996
32.204488 104.375 -146.4352
32.437855 104.334 -146.7105
32.672913 104.264 -146.9245
32.909674 104.167 -147.0821
33.148151 104.043 -147.1929
33.388356 103.895 -147.2697
33.630302 103.727 -147.3265
33.874001 103.540 -147.3760
34.119466 103.340 -147.4279
34.366710 103.130 -147.4878
34.615745 102.915 -147.5574
34.866585 102.701 -147.6353
35.119243 102.491 -147.7186
35.373731 102.292 -147.8049
35.630064 102.107 -147.8930
35.888254 101.941 -147.9836
36.148315 101.797 -148.0793
36.410261 101.677 -148.1828
36.674104 101.580 -148.2967
36.939860 101.508 -148.4217
37.207542 101.460 -148.5572
37.477163 101.436 -148.7006
37.748738 101.434 -148.8489
38.022281 101.456 -148.9996
38.297806 101.501 -149.1511
38.575327 101.569 -149.3041
38.854860 101.660 -149.4607
39.136419 101.772 -149.6243
39.420017 101.905 -149.7984
39.705671 102.055 -149.9857
39.993395 102.222 -150.1872
40.283203 102.402 -150.4019
40.575112 102.593 -150.6270
40.869136 102.794 -150.8586
41.165290 103.003 -151.0923
41.463591 103.220 -151.3247
41.764053 103.443 -151.5535
42.066693 103.670 -151.7782
42.371525 103.901 -152.0001
42.678567 104.132 -152.2214
42.987834 104.363 -152.4449
43.299341 104.590 -152.6733
43.613106 104.810 -152.9079
43.929145 105.022 -153.1490
44.247473 105.221 -153.3950
44.568109 105.407 -153.6431
44.891068 105.577 -153.8894
45.216367 105.730 -154.1297
45.544023 105.866 -154.3599
45.874054 105.983 -154.5770
46.206476 106.082 -154.7793
46.541307 106.163 -154.9669
46.878565 106.227 -155.1415
47.218266 106.274 -155.3063
47.560429 106.306 -155.4653
47.905072 106.323 -155.6227
48.252212 106.328 -155.7820
48.601867 106.320 -155.9454
48.954056 106.302 -156.1138
49.308798 106.274 -156.2864
49.666109 106.239 -156.4618
50.026010 106.198 -156.6377
50.388520 106.152 -156.8120
50.753656 106.104 -156.9828
51.121437 106.055 -157.1486
51.491884 106.008 -157.3082
51.865016 105.963 -157.4610
52.240851 105.922 -157.6068
52.619410 105.887 -157.7457
53.000712 105.858 -157.8781
53.384777 105.834 -158.0048
53.771625 105.816 -158.1268
54.161276 105.803 -158.2455
54.553751 105.794 -158.3626
54.949070 105.788 -158.4803
55.347254 105.783 -158.6008
55.748323 105.779 -158.7263
56.152298 105.776 -158.8588
56.559201 105.773 -159.0000
56.969052 105.770 -159.1511
57.381873 105.766 -159.3128
57.797686 105.762 -159.4852
58.216512 105.759 -159.6684
58.638373 105.755 -159.8622
59.063291 105.751 -160.0669
59.491288 105.747 -160.2834
59.922386 105.744 -160.5132
60.356608 105.741 -160.7584
60.793977 105.740 -161.0212
61.234515 105.739 -161.3037
61.678246 105.740 -161.6074
62.125192 105.743 -161.9332
62.575377 105.746 -162.2812
63.028824 105.752 -162.6513
63.485557 105.760 -163.0425
63.945599 105.770 -163.4537
64.408975 105.782 -163.8836
64.875709 105.796 -164.3307
65.345825 105.813 -164.7933
65.819348 105.832 -165.2699
66.296302 105.854 -165.7593
66.776713 105.878 -166.2604
67.260604 105.904 -166.7728
67.748002 105.932 -167.2967
68.238932 105.962 -167.8325
68.733420 105.993 -168.3812
69.231490 106.025 -168.9439
69.733170 106.057 -169.5213
70.238485 106.089 -170.1140
70.747463 106.121 -170.7219
71.260128 106.151 -171.3447
71.776508 106.180 -171.9816
72.296630 106.208 -172.6314
72.820521 106.234 -173.2931
73.348209 106.258 -173.9656
73.879720 106.280 -174.6478
74.415083 106.300 -175.3386
74.954326 106.318 -176.0371
75.497475 106.333 -176.7422
76.044561 106.346 -177.4529
76.595612 106.355 -178.1682
77.150655 106.361 -178.8872
77.709720 106.363 -179.6089
78.272837 106.360 179.6676
78.840034 106.353 178.9433
79.411342 106.340 178.2191
79.986789 106.322 177.4960
80.566406 106.298 176.7745
81.150224 106.268 176.0554
81.738272 106.233 175.3390
82.330581 106.193 174.6257
82.927182 106.149 173.9160
83.528107 106.103 173.2104
84.133386 106.054 172.5097
84.743051 106.007 171.8143
85.357134 105.963 171.1247
85.975667 105.924 170.4410
86.598682 105.896 169.7634
87.226212 105.880 169.0917
87.858289 105.881 168.4258
88.494946 105.901 167.7656
89.136217 105.942 167.1110
89.782135 106.005 166.4620
90.432733 106.090 165.8190
91.088046 106.195 165.1822
91.748108 106.318 164.5523
92.412952 106.452 163.9301
93.082615 106.595 163.3161
93.757130 106.740 162.7109
94.436533 106.882 162.1149
95.120859 107.016 161.5287
95.810144 107.137 160.9522
96.504423 107.244 160.3858
97.203734 107.333 159.8290
97.908112 107.404 159.2815
98.617595 107.456 158.7425
99.332219 107.490 158.2113
100.052021 107.508 157.6876
100.777039 107.511 157.1710
101.507311 107.502 156.6619
102.242875 107.483 156.1607
102.983769 107.456 155.6681
103.730032 107.422 155.1848
104.481702 107.382 154.7113
105.238820 107.336 154.2482
106.001424 107.284 153.7957
106.769554 107.225 153.3541
107.543250 107.157 152.9232
108.322553 107.078 152.5032
109.107503 106.989 152.0938
109.898141 106.886 151.6952
110.694508 106.769 151.3072
111.496646 106.638 150.9301
112.304596 106.492 150.5640
113.118402 106.333 150.2095
113.938104 106.162 149.8671
114.763747 105.980 149.5372
115.595372 105.791 149.2201
116.433024 105.595 148.9159
117.276746 105.395 148.6246
118.126581 105.194 148.3461
118.982575 104.992 148.0804
119.844772 104.792 147.8279
120.713217 104.593 147.5887
121.587954 104.397 147.3634
122.469031 104.202 147.1524
123.356492 104.007 146.9562
124.250384 103.813 146.7749
125.150753 103.617 146.6087
126.057647 103.417 146.4578
126.971113 103.213 146.3224
127.891198 103.004 146.2029
128.817950 102.787 146.1001
129.751418 102.564 146.0149
130.691651 102.333 145.9485
131.638696 102.095 145.9023
132.592604 101.851 145.8774
133.553425 101.604 145.8748
134.521208 101.355 145.8954
135.496004 101.107 145.9398
136.477864 100.865 146.0083
137.466839 100.630 146.1015
138.462981 100.407 146.2200
139.466340 100.199 146.3643
140.476971 100.009 146.5351
141.494925 99.838 146.7329
142.520256 99.686 146.9583
143.553016 99.552 147.2115
144.593260 99.436 147.4928
145.641043 99.333 147.8019
146.696418 99.239 148.1387
147.759441 99.153 148.5027
148.830166 99.069 148.8935
149.908651 98.984 149.3109
150.994951 98.897 149.7544
152.089123 98.806 150.2238
153.191223 98.711 150.7184
154.301310 98.611 151.2379
155.419441 98.510 151.7811
156.545674 98.407 152.3471
157.680069 98.306 152.9344
158.822683 98.207 153.5414
159.973578 98.112 154.1663
161.132813 98.024 154.8071
162.300447 97.942 155.4618
163.476543 97.868 156.1287
164.661162 97.801 156.8065
165.854364 97.744 157.4945
167.056213 97.695 158.1924
168.266772 97.655 158.9003
169.486102 97.625 159.6187
170.714268 97.605 160.3483
171.951334 97.596 161.0893
173.197364 97.599 161.8416
174.452424 97.614 162.6038
175.716578 97.640 163.3733
176.989893 97.677 164.1462
178.272434 97.724 164.9174
179.564270 97.780 165.6811
180.865467 97.843 166.4308
182.176092 97.912 167.1601
183.496216 97.985 167.8628
184.825905 98.061 168.5335
186.165229 98.139 169.1676
187.514259 98.217 169.7619
188.873065 98.295 170.3144
190.241717 98.374 170.8244
191.620287 98.452 171.2923
193.008847 98.531 171.7198
194.407468 98.610 172.1090
195.816225 98.689 172.4627
197.235190 98.769 172.7833
198.664438 98.848 173.0735
200.104042 98.927 173.3351
201.554078 99.004 173.5702
203.014622 99.078 173.7802
204.485750 99.150 173.9666
205.967538 99.217 174.1308
207.460064 99.281 174.2740
208.963405 99.340 174.3970
210.477640 99.395 174.5007
212.002848 99.445 174.5856
213.539108 99.491 174.6523
215.086500 99.533 174.7017
216.645105 99.572 174.7348
218.215005 99.607 174.7530
219.796281 99.639 174.7578
221.389015 99.667 174.7508
222.993292 99.690 174.7338
224.609193 99.709 174.7083
226.236804 99.722 174.6754
227.876209 99.729 174.6365
229.527494 99.729 174.5922
231.190745 99.723 174.5430
232.866048 99.710 174.4892
234.553491 99.690 174.4307
236.253163 99.666 174.3672
237.965150 99.636 174.2984
239.689544 99.603 174.2242
241.426433 99.567 174.1442
243.175909 99.529 174.0585
244.938062 99.491 173.9673
246.712984 99.454 173.8707
248.500768 99.418 173.7691
250.301507 99.384 173.6633
252.115295 99.353 173.5537
253.942226 99.326 173.4411
255.782396 99.303 173.3261
257.635901 99.284 173.2093
259.502837 99.270 173.0909
261.383301 99.262 172.9711
263.277392 99.259 172.8497
265.185209 99.261 172.7265
267.106850 99.269 172.6012
269.042417 99.282 172.4734
270.992009 99.300 172.3427
272.955729 99.322 172.2089
274.933678 99.347 172.0719
276.925961 99.375 171.9318
278.932681 99.405 171.7889
280.953942 99.436 171.6436
282.989850 99.469 171.4963
285.040511 99.503 171.3477
287.106032 99.539 171.1984
289.186521 99.577 171.0490
291.282086 99.618 170.9001
293.392836 99.662 170.7524
295.518881 99.711 170.6064
297.660333 99.765 170.4626
299.817302 99.823 170.3217
301.989902 99.884 170.1840
304.178245 99.948 170.0502
306.382446 100.013 169.9207
308.602620 100.077 169.7959
310.838882 100.139 169.6763
313.091348 100.196 169.5624
315.360137 100.248 169.4545
317.645367 100.293 169.3530
319.947156 100.329 169.2582
322.265625 100.357 169.1703
324.600895 100.376 169.0895
326.953086 100.384 169.0157
329.322323 100.383 168.9491
331.708729 100.370 168.8895
334.112427 100.348 168.8369
336.533543 100.315 168.7912
338.972204 100.272 168.7522
341.428536 100.221 168.7197
343.902668 100.161 168.6937
346.394729 100.095 168.6738
348.904848 100.024 168.6597
351.433156 99.951 168.6512
353.979786 99.877 168.6477
356.544869 99.805 168.6486
359.128540 99.738 168.6533
361.730934 99.680 168.6609
364.352185 99.632 168.6707
366.992431 99.598 168.6815
369.651810 99.581 168.6923
372.330459 99.581 168.7020
375.028519 99.601 168.7097
377.746130 99.640 168.7141
380.483434 99.697 168.7142
383.240574 99.771 168.7089
386.017693 99.860 168.6970
388.814937 99.961 168.6776
391.632450 100.070 168.6494
394.470380 100.185 168.6116
397.328875 100.302 168.5633
400.208084 100.421 168.5040
403.108157 100.537 168.4333
406.029245 100.651 168.3511
408.971500 100.761 168.2579
411.935076 100.866 168.1547
414.920127 100.967 168.0430
417.926810 101.064 167.9250
420.955280 101.157 167.8034
424.005695 101.249 167.6808
427.078215 101.339 167.5600
430.173000 101.429 167.4428
433.290211 101.519 167.3301
436.430010 101.609 167.2216
439.592562 101.700 167.1156
442.778031 101.790 167.0095
445.986583 101.878 166.9003
449.218386 101.962 166.7851
452.473607 102.040 166.6614
455.752418 102.112 166.5277
459.054987 102.174 166.3832
462.381489 102.226 166.2280
465.732096 102.267 166.0624
469.106983 102.296 165.8876
472.506325 102.314 165.7047
475.930301 102.321 165.5149
479.379088 102.317 165.3196
482.852867 102.304 165.1197
486.351817 102.282 164.9164
489.876123 102.253 164.7104
493.425968 102.218 164.5026
497.001536 102.178 164.2937
500.603014 102.132 164.0844
504.230589 102.082 163.8757
507.884452 102.027 163.6682
511.564792 101.968 163.4633
515.271802 101.905 163.2617
519.005673 101.839 163.0648
522.766602 101.770 162.8737
526.554785 101.699 162.6895
530.370418 101.628 162.5130
534.213700 101.559 162.3448
538.084833 101.494 162.1851
541.984018 101.434 162.0339
545.911457 101.381 161.8909
549.867357 101.337 161.7555
553.851922 101.301 161.6271
557.865362 101.274 161.5048
561.907884 101.253 161.3878
565.979700 101.239 161.2755
570.081022 101.229 161.1673
574.212064 101.220 161.0627
578.373042 101.212 160.9615
582.564171 101.202 160.8638
586.785671 101.189 160.7695
591.037762 101.171 160.6789
595.320665 101.147 160.5921
599.634604 101.116 160.5094
603.979804 101.078 160.4311
608.356491 101.033 160.3571
612.764893 100.982 160.2875
617.205240 100.924 160.2220
621.677763 100.861 160.1602
626.182696 100.794 160.1016
630.720274 100.725 160.0453
635.290733 100.655 159.9909
639.894312 100.588 159.9374
644.531250 100.524 159.8843
649.201789 100.465 159.8314
653.906173 100.412 159.7788
658.644647 100.367 159.7268
663.417457 100.328 159.6763
668.224854 100.297 159.6283
673.067086 100.271 159.5838
677.944408 100.249 159.5439
682.857073 100.230 159.5094
687.805336 100.212 159.4811
692.789457 100.194 159.4592
697.809695 100.174 159.4439
702.866312 100.150 159.4349
707.959571 100.124 159.4316
713.089738 100.092 159.4336
718.257080 100.057 159.4400
723.461867 100.017 159.4502
728.704370 99.973 159.4633
733.984862 99.925 159.4789
739.303619 99.874 159.4965
744.660918 99.822 159.5156
750.057038 99.768 159.5364
755.492260 99.713 159.5588
760.966869 99.657 159.5831
766.481148 99.600 159.6097
772.035387 99.542 159.6389
777.629873 99.482 159.6713
783.264900 99.420 159.7072
788.940760 99.354 159.7471
794.657750 99.284 159.7913
800.416168 99.210 159.8399
806.216313 99.130 159.8929
812.058489 99.044 159.9499
817.943000 98.952 160.0102
823.870152 98.854 160.0728
829.840255 98.751 160.1365
835.853619 98.643 160.2000
841.910559 98.532 160.2617
848.011390 98.418 160.3204
854.156430 98.304 160.3746
860.346000 98.188 160.4227
866.580422 98.074 160.4634
872.860020 97.961 160.4954
879.185124 97.850 160.5174
885.556062 97.743 160.5284
891.973166 97.640 160.5277
898.436771 97.540 160.5155
904.947215 97.446 160.4927
911.504835 97.357 160.4614
918.109975 97.273 160.4245
924.762978 97.195 160.3856
931.464192 97.123 160.3489
938.213966 97.057 160.3183
945.012651 96.997 160.2981
951.860602 96.943 160.2925
958.758176 96.894 160.3060
965.705733 96.849 160.3437
972.703635 96.809 160.4113
979.752246 96.773 160.5151
986.851935 96.740 160.6622
994.003071 96.711 160.8596
1001.206027 96.687 161.1143
1008.461179 96.669 161.4326
1015.768904 96.660 161.8198
1023.129584 96.662 162.2798
1030.543603 96.677 162.8142
1038.011347 96.711 163.4218
1045.533205 96.765 164.0970
1053.109569 96.843 164.8291
1060.740836 96.948 165.6008
1068.427401 97.080 166.3882
1076.169666 97.239 167.1609
1083.968035 97.423 167.8838
1091.822915 97.627 168.5204
1099.734713 97.844 169.0370
1107.703844 98.068 169.4072
1115.730723 98.292 169.6148
1123.815768 98.508 169.6566
1131.959400 98.709 169.5415
1140.162045 98.891 169.2892
1148.424129 99.052 168.9265
1156.746083 99.189 168.4841
1165.128342 99.304 167.9922
1173.571343 99.398 167.4790
1182.075524 99.474 166.9678
1190.641331 99.535 166.4767
1199.269209 99.584 166.0189
1207.959608 99.625 165.6025
1216.712981 99.661 165.2318
1225.529785 99.692 164.9075
1234.410479 99.722 164.6282
1243.355526 99.751 164.3911
1252.365393 99.779 164.1918
1261.440549 99.807 164.0260
1270.581467 99.833 163.8892
1279.788624 99.857 163.7770
1289.062500 99.880 163.6856
1298.403578 99.900 163.6118
1307.812346 99.918 163.5526
1317.289293 99.934 163.5057
1326.834914 99.947 163.4694
1336.449707 99.959 163.4420
1346.134173 99.968 163.4223
1355.888816 99.976 163.4091
1365.714145 99.983 163.4017
1375.610673 99.988 163.3993
1385.578915 99.992 163.4013
1395.619391 99.994 163.4072
1405.732624 99.994 163.4164
1415.919142 99.993 163.4285
1426.179476 99.991 163.4430
1436.514160 99.989 163.4595
1446.923734 99.986 163.4775
1457.408740 99.984 163.4965
1467.969724 99.984 163.5159
1478.607238 99.986 163.5353
1489.321836 99.992 163.5538
1500.114076 100.001 163.5709
1510.984521 100.013 163.5856
1521.933737 100.030 163.5970
1532.962297 100.051 163.6045
1544.070773 100.075 163.6073
1555.259747 100.102 163.6048
1566.529800 100.131 163.5968
1577.881521 100.161 163.5830
1589.315501 100.192 163.5634
1600.832336 100.223 163.5381
1612.432627 100.253 163.5071
1624.116978 100.282 163.4705
1635.886000 100.310 163.4286
1647.740304 100.337 163.3817
1659.680509 100.362 163.3300
1671.707238 100.386 163.2741
1683.821118 100.409 163.2145
1696.022780 100.431 163.1518
1708.312860 100.452 163.0864
1720.692000 100.472 163.0191
1733.160843 100.492 162.9502
1745.720041 100.511 162.8804
1758.370248 100.529 162.8102
1771.112124 100.546 162.7401
1783.946332 100.562 162.6707
1796.873543 100.576 162.6027
1809.894429 100.587 162.5366
1823.009670 100.596 162.4730
1836.219950 100.602 162.4127
1849.525956 100.604 162.3565
1862.928384 100.603 162.3052
1876.427931 100.599 162.2598
1890.025301 100.592 162.2207
1903.721204 100.582 162.1887
1917.516352 100.570 162.1642
1931.411466 100.554 162.1475
1945.407270 100.535 162.1389
1959.504493 100.512 162.1386
1973.703870 100.485 162.1471
1988.006142 100.452 162.1644
2002.412054 100.414 162.1912
2016.922357 100.369 162.2277
2031.537808 100.316 162.2745
2046.259169 100.256 162.3325
2061.087206 100.187 162.4026
2076.022694 100.109 162.4860
2091.066410 100.022 162.5844
2106.219139 99.927 162.6992
2121.481671 99.825 162.8318
2136.854802 99.716 162.9838
2152.339333 99.601 163.1561
2167.936071 99.482 163.3495
2183.645829 99.360 163.5645
2199.469427 99.237 163.8010
2215.407689 99.114 164.0588
2231.461446 98.993 164.3375
2247.631536 98.873 164.6363
2263.918800 98.757 164.9543
2280.324089 98.644 165.2910
2296.848258 98.535 165.6456
2313.492167 98.431 166.0175
2330.256685 98.331 166.4064
2347.142685 98.235 166.8120
2364.151049 98.144 167.2339
2381.282662 98.058 167.6721
2398.538418 97.976 168.1265
2415.919216 97.899 168.5968
2433.425962 97.826 169.0828
2451.059570 97.759 169.5842
2468.820958 97.696 170.1005
2486.711052 97.639 170.6313
2504.730786 97.587 171.1758
2522.881098 97.542 171.7332
2541.162934 97.504 172.3028
2559.577248 97.474 172.8837
2578.125000 97.453 173.4749
2596.807157 97.442 174.0756
2615.624692 97.442 174.6848
2634.578586 97.454 175.3010
2653.669829 97.480 175.9225
2672.899414 97.521 176.5473
2692.268345 97.576 177.1724
2711.777632 97.646 177.7948
2731.428290 97.730 178.4108
2751.221345 97.828 179.0166
2771.157829 97.937 179.6087
2791.238781 98.055 -179.8160
2811.465248 98.179 -179.2597
2831.838284 98.308 -178.7238
2852.358952 98.437 -178.2086
2873.028321 98.566 -177.7134
2893.847468 98.690 -177.2368
2914.817480 98.809 -176.7768
2935.939449 98.920 -176.3308
2957.214476 99.023 -175.8965
2978.643672 99.116 -175.4713
3000.228152 99.200 -175.0529
3021.969041 99.275 -174.6397
3043.867475 99.340 -174.2300
3065.924593 99.396 -173.8228
3088.141547 99.445 -173.4170
3110.519493 99.487 -173.0120
3133.059600 99.522 -172.6072
3155.763041 99.553 -172.2019
3178.631001 99.578 -171.7955
3201.664672 99.600 -171.3874
3224.865254 99.620 -170.9770
3248.233957 99.637 -170.5637
3271.771999 99.652 -170.1470
3295.480608 99.667 -169.7263
3319.361019 99.681 -169.3011
3343.414477 99.696 -168.8708
3367.642236 99.711 -168.4346
3392.045560 99.727 -167.9913
3416.625721 99.745 -167.5396
3441.383999 99.765 -167.0780
3466.321686 99.788 -166.6044
3491.440082 99.815 -166.1170
3516.740496 99.847 -165.6145
3542.224247 99.886 -165.0959
3567.892664 99.933 -164.5615
3593.747085 99.988 -164.0125
3619.788858 100.054 -163.4514
3646.019340 100.131 -162.8820
3672.439900 100.220 -162.3090
3699.051913 100.321 -161.7376
3725.856768 100.434 -161.1734
3752.855862 100.559 -160.6220
3780.050603 100.696 -160.0885
3807.442408 100.844 -159.5773
3835.032705 101.001 -159.0923
3862.822933 101.168 -158.6368
3890.814540 101.342 -158.2132
3919.008986 101.523 -157.8239
3947.407741 101.710 -157.4706
3976.012284 101.901 -157.1552
4004.824108 102.097 -156.8790
4033.844715 102.295 -156.6436
4063.075616 102.495 -156.4499
4092.518337 102.696 -156.2987
4122.174412 102.897 -156.1900
4152.045387 103.098 -156.1234
4182.132820 103.299 -156.0976
4212.438278 103.498 -156.1110
4242.963342 103.695 -156.1619
4273.709604 103.892 -156.2488
4304.678665 104.087 -156.3710
4335.872141 104.281 -156.5288
4367.291658 104.474 -156.7240
4398.938854 104.667 -156.9597
4430.815378 104.858 -157.2409
4462.922893 105.047 -157.5736
4495.263072 105.235 -157.9653
4527.837601 105.420 -158.4242
4560.648179 105.602 -158.9591
4593.696515 105.778 -159.5787
4626.984334 105.949 -160.2910
4660.513370 106.113 -161.1028
4694.285371 106.267 -162.0193
4728.302098 106.411 -163.0428
4762.565324 106.542 -164.1731
4797.076835 106.660 -165.4068
4831.838432 106.761 -166.7373
4866.851925 106.845 -168.1549
4902.119140 106.911 -169.6469
4937.641916 106.956 -171.1985
4973.422105 106.981 -172.7926
5009.461572 106.985 -174.4109
5045.762195 106.967 -176.0341
5082.325868 106.929 -177.6428
5119.154496 106.870 -179.2175
5156.250000 106.792 179.2601
5193.614313 106.696 177.8075
5231.249383 106.585 176.4405
5269.157173 106.459 175.1729
5307.339658 106.322 174.0162
5345.798829 106.176 172.9795
5384.536691 106.023 172.0692
5423.555263 105.867 171.2883
5462.856580 105.711 170.6368
5502.442691 105.558 170.1112
5542.315659 105.412 169.7043
5582.477563 105.276 169.4051
5622.930497 105.154 169.1991
5663.676569 105.049 169.0685
5704.717904 104.963 168.9924
5746.056642 104.901 168.9480
5787.694937 104.862 168.9113
5829.634960 104.848 168.8578
5871.878898 104.859 168.7641
5914.428953 104.893 168.6083
5957.287343 104.947 168.3712
6000.456303 105.019 168.0363
6043.938083 105.105 167.5908
6087.734950 105.199 167.0256
6131.849187 105.298 166.3348
6176.283094 105.396 165.5160
6221.038987 105.488 164.5696
6266.119200 105.571 163.4990
6311.526083 105.638 162.3097
6357.262002 105.688 161.0092
6403.329344 105.717 159.6070
6449.730508 105.721 158.1139
6496.467914 105.698 156.5421
6543.543998 105.648 154.9048
6590.961215 105.568 153.2167
6638.722037 105.458 151.4930
6686.828954 105.317 149.7500
6735.284473 105.146 148.0044
6784.091120 104.946 146.2735
6833.251441 104.717 144.5749
6882.767998 104.460 142.9259
6932.643372 104.178 141.3439
6982.880164 103.872 139.8455
7033.480992 103.545 138.4466
7084.448495 103.199 137.1618
7135.785329 102.835 136.0045
7187.494171 102.458 134.9865
7239.577717 102.068 134.1173
7292.038681 101.669 133.4046
7344.879799 101.263 132.8531
7398.103826 100.853 132.4646
7451.713536 100.441 132.2370
7505.711724 100.030 132.1638
7560.101205 99.621 132.2331
7614.884815 99.219 132.4271
7670.065409 98.823 132.7212
7725.645865 98.438 133.0836
7781.629080 98.064 133.4756
7838.017972 97.702 133.8524
7894.815481 97.353 134.1650
7952.024569 97.016 134.3639
8009.648217 96.689 134.4039
8067.689429 96.368 134.2505
8126.151233 96.048 133.8877
8185.036674 95.722 133.3273
8244.348824 95.385 132.6201
8304.090774 95.032 131.8713
8364.265639 94.660 131.2680
8424.876556 94.273 131.1336
8485.926684 93.884 132.0500
8547.419207 93.514 135.1634
8609.357330 93.193 142.9753
8671.744282 92.956 160.8026
8734.583316 92.834 -168.0007
8797.877707 92.848 -140.3825
8861.630756 92.998 -126.5494
8925.845785 93.265 -120.7428
8990.526143 93.619 -118.7106
9055.675202 94.026 -118.5735
9121.296357 94.457 -119.4728
9187.393031 94.886 -120.9766
9253.968668 95.297 -122.8482
9321.026740 95.679 -124.9487
9388.570742 96.024 -127.1925
9456.604196 96.328 -129.5255
9525.130648 96.589 -131.9136
9594.153671 96.807 -134.3354
9663.676863 96.981 -136.7782
9733.703850 97.111 -139.2347
9804.238280 97.199 -141.7002
9875.283832 97.243 -144.1709
9946.844210 97.244 -146.6422
10018.923143 97.204 -149.1077
10091.524390 97.122 -151.5580
10164.651736 97.000 -153.9814
10238.308993 96.838 -156.3630
10312.500000 96.639 -158.6859
10387.228626 96.405 -160.9314
10462.498767 96.136 -163.0801
10538.314345 95.837 -165.1132
10614.679315 95.509 -167.0129
10691.597657 95.157 -168.7639
10769.073381 94.783 -170.3542
10847.110526 94.389 -171.7750
10925.713161 93.980 -173.0216
11004.885382 93.557 -174.0939
11084.631318 93.123 -174.9959
11164.955126 92.680 -175.7370
11245.860993 92.231 -176.3315
11327.353138 91.777 -176.7998
11409.435808 91.323 -177.1680
11492.113283 90.870 -177.4691
11575.389873 90.421 -177.7428
11659.269920 89.982 -178.0354
11743.757796 89.556 -178.4001
11828.857906 89.146 -178.8946
11914.574686 88.757 -179.5795
12000.912606 88.389 179.4860
12087.876166 88.041 178.2476
12175.469900 87.711 176.6603
12263.698373 87.393 174.6915
12352.566187 87.076 172.3225
12442.077974 86.753 169.5497
12532.238400 86.411 166.3828
12623.052165 86.042 162.8425
12714.524005 85.638 158.9565
12806.658687 85.194 154.7519
12899.461015 84.708 150.2434
12992.935827 84.186 145.4081
13087.087996 83.635 140.1213
13181.922430 83.068 133.9329
13277.444074 82.503 124.8224
13373.657907 81.961 87.2027
13470.568945 81.462 -34.7320
13568.182241 81.026 -48.7067
13666.502883 80.665 -55.4484
13765.535996 80.385 -60.5760
13865.286744 80.182 -65.0402
13965.760328 80.047 -69.1447
14066.961984 79.962 -73.0247
14168.896989 79.910 -76.7546
14271.570658 79.872 -80.3798
14374.988342 79.831 -83.9279
14479.155433 79.771 -87.4131
14584.077362 79.682 -90.8373
14689.759598 79.554 -94.1918
14796.207652 79.379 -97.4582
14903.427072 79.153 -100.6104
15011.423448 78.874 -103.6174
15120.202410 78.543 -106.4470
15229.769630 78.162 -109.0699
15340.130819 77.737 -111.4651
15451.291730 77.273 -113.6245
15563.258160 76.779 -115.5560
15676.035944 76.264 -117.2825
15789.630962 75.733 -118.8356
15904.049137 75.191 -120.2452
16019.296433 74.641 -121.5281
16135.378859 74.084 -122.6815
16252.302465 73.520 -123.6875
16370.073348 72.955 -124.5297
16488.697648 72.396 -125.2182
16608.181548 71.857 -125.8127
16728.531278 71.353 -126.4320
16849.753112 70.898 -127.2393
16971.853368 70.500 -128.4099
17094.838414 70.163 -130.0934
17218.714660 69.884 -132.3906
17343.488565 69.656 -135.3511
17469.166632 69.476 -138.9869
17595.755415 69.346 -143.2946
17723.261512 69.270 -148.2756
17851.691571 69.259 -153.9576
17981.052287 69.324 -160.4180
18111.350404 69.475 -167.8281
18242.592715 69.712 -176.5676
18374.786062 70.033 172.4238
18507.937336 70.423 156.2760
18642.053479 70.867 123.4503
18777.141484 71.342 54.9789
18913.208391 71.829 13.4346
19050.261296 72.307 -5.2026
19188.307342 72.760 -17.1348
19327.353727 73.170 -26.2196
19467.407699 73.528 -33.5345
19608.476560 73.822 -39.3989
19750.567664 74.047 -43.8687
19893.688419 74.199 -46.9037
20037.846286 74.275 -48.4421
