* Measurement data measured by REW V5.31.3
* Source: EXCL: Headset (USB-C to 3.5mm Headphone Jack Adapter), MICROPHONE (Master Volume), 0, volume: 0.170
* Format: 256k Log Swept Sine, 1 sweep at -12.0 dBFS with no timing reference
* Dated: Feb 9, 2025 1:45:20 PM
* REW Settings:
*  C-weighting compensation: Off
*  Target level: 75.0 dB
* Note: ; 
* Measurement: uroboros (Golem Mod) L12
* Smoothing: 1/6 octave
* Frequency Step: 96 ppo
* Start Frequency: 20.0 Hz
*
* Freq(Hz) SPL(dB) Phase(degrees)
20.141602 105.700 -117.6692
20.287556 105.697 -117.9134
20.434568 105.692 -118.2372
20.582645 105.682 -118.6267
20.731796 105.665 -119.0670
20.882027 105.639 -119.5435
21.033346 105.602 -120.0431
21.185763 105.554 -120.5545
21.339284 105.494 -121.0690
21.493917 105.422 -121.5804
21.649671 105.340 -122.0847
21.806553 105.248 -122.5803
21.964572 105.149 -123.0671
22.123737 105.044 -123.5466
22.284054 104.935 -124.0212
22.445534 104.825 -124.4937
22.608183 104.716 -124.9667
22.772012 104.608 -125.4424
22.937027 104.505 -125.9221
23.103238 104.407 -126.4055
23.270654 104.315 -126.8916
23.439282 104.231 -127.3776
23.609133 104.154 -127.8603
23.780215 104.087 -128.3356
23.952536 104.029 -128.7999
24.126106 103.981 -129.2501
24.300934 103.942 -129.6844
24.477028 103.912 -130.1024
24.654399 103.890 -130.5058
24.833055 103.875 -130.8977
25.013005 103.865 -131.2825
25.194260 103.857 -131.6655
25.376828 103.851 -132.0520
25.560719 103.842 -132.4469
25.745942 103.830 -132.8543
25.932508 103.813 -133.2769
26.120426 103.789 -133.7164
26.309705 103.759 -134.1733
26.500356 103.722 -134.6475
26.692388 103.681 -135.1383
26.885812 103.635 -135.6452
27.080638 103.586 -136.1671
27.276876 103.536 -136.7028
27.474535 103.487 -137.2504
27.673627 103.439 -137.8067
27.874161 103.393 -138.3670
28.076149 103.352 -138.9249
28.279600 103.316 -139.4727
28.484526 103.286 -140.0019
28.690937 103.265 -140.5047
28.898843 103.253 -140.9745
29.108256 103.255 -141.4081
29.319186 103.270 -141.8056
29.531645 103.301 -142.1712
29.745644 103.347 -142.5128
29.961193 103.409 -142.8403
30.178304 103.484 -143.1643
30.396989 103.568 -143.4939
30.617258 103.656 -143.8348
30.839123 103.744 -144.1880
31.062596 103.826 -144.5494
31.287688 103.896 -144.9102
31.514412 103.951 -145.2588
31.742778 103.987 -145.5824
31.972800 103.999 -145.8697
32.204488 103.987 -146.1129
32.437855 103.949 -146.3091
32.672913 103.885 -146.4607
32.909674 103.795 -146.5751
33.148151 103.679 -146.6631
33.388356 103.540 -146.7371
33.630302 103.378 -146.8088
33.874001 103.196 -146.8875
34.119466 102.998 -146.9789
34.366710 102.788 -147.0845
34.615745 102.569 -147.2022
34.866585 102.348 -147.3268
35.119243 102.131 -147.4520
35.373731 101.922 -147.5712
35.630064 101.728 -147.6789
35.888254 101.553 -147.7719
36.148315 101.401 -147.8488
36.410261 101.275 -147.9106
36.674104 101.176 -147.9600
36.939860 101.104 -148.0007
37.207542 101.059 -148.0370
37.477163 101.039 -148.0731
37.748738 101.042 -148.1131
38.022281 101.069 -148.1602
38.297806 101.116 -148.2164
38.575327 101.185 -148.2823
38.854860 101.272 -148.3569
39.136419 101.379 -148.4379
39.420017 101.503 -148.5224
39.705671 101.645 -148.6077
39.993395 101.803 -148.6925
40.283203 101.977 -148.7773
40.575112 102.165 -148.8646
40.869136 102.366 -148.9585
41.165290 102.579 -149.0638
41.463591 102.801 -149.1847
41.764053 103.032 -149.3245
42.066693 103.269 -149.4847
42.371525 103.510 -149.6653
42.678567 103.753 -149.8652
42.987834 103.995 -150.0829
43.299341 104.235 -150.3164
43.613106 104.469 -150.5641
43.929145 104.694 -150.8241
44.247473 104.908 -151.0948
44.568109 105.108 -151.3742
44.891068 105.292 -151.6606
45.216367 105.459 -151.9520
45.544023 105.608 -152.2464
45.874054 105.739 -152.5417
46.206476 105.850 -152.8353
46.541307 105.943 -153.1243
46.878565 106.018 -153.4051
47.218266 106.075 -153.6746
47.560429 106.115 -153.9303
47.905072 106.138 -154.1708
48.252212 106.147 -154.3966
48.601867 106.143 -154.6095
48.954056 106.128 -154.8124
49.308798 106.103 -155.0085
49.666109 106.071 -155.2001
50.026010 106.033 -155.3885
50.388520 105.991 -155.5736
50.753656 105.948 -155.7545
51.121437 105.905 -155.9300
51.491884 105.864 -156.0994
51.865016 105.827 -156.2627
52.240851 105.795 -156.4209
52.619410 105.769 -156.5753
53.000712 105.749 -156.7275
53.384777 105.736 -156.8781
53.771625 105.728 -157.0273
54.161276 105.725 -157.1748
54.553751 105.725 -157.3203
54.949070 105.729 -157.4644
55.347254 105.733 -157.6087
55.748323 105.739 -157.7557
56.152298 105.744 -157.9086
56.559201 105.747 -158.0709
56.969052 105.750 -158.2453
57.381873 105.750 -158.4341
57.797686 105.749 -158.6383
58.216512 105.747 -158.8582
58.638373 105.744 -159.0935
59.063291 105.741 -159.3435
59.491288 105.737 -159.6079
59.922386 105.733 -159.8867
60.356608 105.729 -160.1808
60.793977 105.726 -160.4916
61.234515 105.723 -160.8203
61.678246 105.722 -161.1676
62.125192 105.722 -161.5334
62.575377 105.723 -161.9172
63.028824 105.725 -162.3174
63.485557 105.729 -162.7328
63.945599 105.734 -163.1623
64.408975 105.741 -163.6052
64.875709 105.751 -164.0613
65.345825 105.762 -164.5307
65.819348 105.775 -165.0134
66.296302 105.790 -165.5092
66.776713 105.806 -166.0185
67.260604 105.825 -166.5413
67.748002 105.845 -167.0782
68.238932 105.866 -167.6299
68.733420 105.889 -168.1967
69.231490 105.912 -168.7790
69.733170 105.935 -169.3764
70.238485 105.959 -169.9881
70.747463 105.982 -170.6130
71.260128 106.004 -171.2493
71.776508 106.025 -171.8950
72.296630 106.044 -172.5478
72.820521 106.062 -173.2060
73.348209 106.077 -173.8679
73.879720 106.091 -174.5324
74.415083 106.102 -175.1988
74.954326 106.112 -175.8667
75.497475 106.119 -176.5359
76.044561 106.125 -177.2061
76.595612 106.128 -177.8770
77.150655 106.128 -178.5479
77.709720 106.125 -179.2181
78.272837 106.118 -179.8864
78.840034 106.108 179.4481
79.411342 106.092 178.7862
79.986789 106.072 178.1286
80.566406 106.046 177.4758
81.150224 106.016 176.8277
81.738272 105.979 176.1844
82.330581 105.939 175.5456
82.927182 105.894 174.9110
83.528107 105.847 174.2806
84.133386 105.800 173.6543
84.743051 105.753 173.0321
85.357134 105.711 172.4139
85.975667 105.676 171.7997
86.598682 105.652 171.1889
87.226212 105.642 170.5813
87.858289 105.649 169.9767
88.494946 105.678 169.3752
89.136217 105.729 168.7773
89.782135 105.803 168.1835
90.432733 105.900 167.5945
91.088046 106.017 167.0104
91.748108 106.152 166.4315
92.412952 106.299 165.8572
93.082615 106.454 165.2870
93.757130 106.612 164.7202
94.436533 106.765 164.1559
95.120859 106.910 163.5936
95.810144 107.043 163.0324
96.504423 107.160 162.4721
97.203734 107.259 161.9123
97.908112 107.339 161.3528
98.617595 107.400 160.7938
99.332219 107.444 160.2360
100.052021 107.471 159.6804
100.777039 107.485 159.1282
101.507311 107.486 158.5811
102.242875 107.478 158.0403
102.983769 107.461 157.5069
103.730032 107.438 156.9816
104.481702 107.408 156.4647
105.238820 107.373 155.9560
106.001424 107.331 155.4554
106.769554 107.281 154.9626
107.543250 107.222 154.4776
108.322553 107.153 154.0005
109.107503 107.071 153.5318
109.898141 106.975 153.0718
110.694508 106.865 152.6211
111.496646 106.740 152.1802
112.304596 106.600 151.7494
113.118402 106.446 151.3287
113.938104 106.280 150.9182
114.763747 106.103 150.5178
115.595372 105.917 150.1275
116.433024 105.725 149.7478
117.276746 105.529 149.3793
118.126581 105.330 149.0229
118.982575 105.130 148.6797
119.844772 104.931 148.3510
120.713217 104.732 148.0373
121.587954 104.536 147.7398
122.469031 104.340 147.4593
123.356492 104.144 147.1964
124.250384 103.948 146.9521
125.150753 103.749 146.7268
126.057647 103.547 146.5210
126.971113 103.339 146.3352
127.891198 103.125 146.1697
128.817950 102.904 146.0251
129.751418 102.675 145.9023
130.691651 102.439 145.8021
131.638696 102.196 145.7253
132.592604 101.948 145.6727
133.553425 101.696 145.6451
134.521208 101.442 145.6431
135.496004 101.190 145.6669
136.477864 100.943 145.7168
137.466839 100.704 145.7928
138.462981 100.477 145.8950
139.466340 100.265 146.0233
140.476971 100.071 146.1779
141.494925 99.896 146.3591
142.520256 99.741 146.5672
143.553016 99.604 146.8029
144.593260 99.484 147.0667
145.641043 99.379 147.3591
146.696418 99.283 147.6806
147.759441 99.195 148.0314
148.830166 99.109 148.4114
149.908651 99.024 148.8206
150.994951 98.936 149.2581
152.089123 98.845 149.7232
153.191223 98.751 150.2148
154.301310 98.653 150.7316
155.419441 98.552 151.2723
156.545674 98.452 151.8356
157.680069 98.352 152.4199
158.822683 98.256 153.0237
159.973578 98.165 153.6454
161.132813 98.080 154.2831
162.300447 98.003 154.9354
163.476543 97.934 155.6002
164.661162 97.874 156.2759
165.854364 97.824 156.9608
167.056213 97.783 157.6527
168.266772 97.752 158.3497
169.486102 97.731 159.0496
170.714268 97.720 159.7499
171.951334 97.719 160.4485
173.197364 97.728 161.1429
174.452424 97.747 161.8311
175.716578 97.775 162.5109
176.989893 97.812 163.1801
178.272434 97.857 163.8367
179.564270 97.907 164.4789
180.865467 97.963 165.1050
182.176092 98.022 165.7135
183.496216 98.083 166.3032
184.825905 98.145 166.8728
186.165229 98.207 167.4215
187.514259 98.270 167.9483
188.873065 98.333 168.4526
190.241717 98.395 168.9336
191.620287 98.459 169.3908
193.008847 98.524 169.8236
194.407468 98.590 170.2315
195.816225 98.657 170.6141
197.235190 98.725 170.9709
198.664438 98.795 171.3019
200.104042 98.864 171.6067
201.554078 98.933 171.8849
203.014622 99.000 172.1365
204.485750 99.065 172.3614
205.967538 99.127 172.5601
207.460064 99.185 172.7335
208.963405 99.239 172.8828
210.477640 99.289 173.0099
212.002848 99.334 173.1167
213.539108 99.375 173.2056
215.086500 99.413 173.2786
216.645105 99.447 173.3377
218.215005 99.477 173.3844
219.796281 99.505 173.4197
221.389015 99.528 173.4441
222.993292 99.548 173.4578
224.609193 99.563 173.4604
226.236804 99.572 173.4518
227.876209 99.576 173.4312
229.527494 99.573 173.3984
231.190745 99.564 173.3531
232.866048 99.548 173.2956
234.553491 99.527 173.2265
236.253163 99.501 173.1470
237.965150 99.470 173.0586
239.689544 99.436 172.9628
241.426433 99.399 172.8612
243.175909 99.361 172.7554
244.938062 99.323 172.6466
246.712984 99.285 172.5359
248.500768 99.248 172.4240
250.301507 99.213 172.3115
252.115295 99.180 172.1985
253.942226 99.151 172.0849
255.782396 99.126 171.9705
257.635901 99.106 171.8545
259.502837 99.090 171.7363
261.383301 99.079 171.6154
263.277392 99.073 171.4912
265.185209 99.073 171.3633
267.106850 99.078 171.2314
269.042417 99.088 171.0955
270.992009 99.102 170.9561
272.955729 99.120 170.8139
274.933678 99.142 170.6701
276.925961 99.167 170.5262
278.932681 99.193 170.3835
280.953942 99.221 170.2435
282.989850 99.251 170.1071
285.040511 99.283 169.9747
287.106032 99.317 169.8460
289.186521 99.353 169.7205
291.282086 99.394 169.5970
293.392836 99.439 169.4743
295.518881 99.489 169.3513
297.660333 99.544 169.2268
299.817302 99.604 169.1003
301.989902 99.667 168.9715
304.178245 99.733 168.8405
306.382446 99.800 168.7079
308.602620 99.865 168.5746
310.838882 99.928 168.4419
313.091348 99.987 168.3112
315.360137 100.039 168.1836
317.645367 100.084 168.0605
319.947156 100.121 167.9428
322.265625 100.148 167.8312
324.600895 100.166 167.7261
326.953086 100.173 167.6273
329.322323 100.169 167.5349
331.708729 100.154 167.4483
334.112427 100.128 167.3675
336.533543 100.092 167.2921
338.972204 100.046 167.2222
341.428536 99.991 167.1574
343.902668 99.927 167.0978
346.394729 99.857 167.0432
348.904848 99.782 166.9938
351.433156 99.703 166.9496
353.979786 99.623 166.9106
356.544869 99.545 166.8771
359.128540 99.471 166.8490
361.730934 99.404 166.8265
364.352185 99.347 166.8094
366.992431 99.303 166.7975
369.651810 99.275 166.7907
372.330459 99.263 166.7884
375.028519 99.269 166.7902
377.746130 99.294 166.7955
380.483434 99.337 166.8037
383.240574 99.397 166.8143
386.017693 99.470 166.8265
388.814937 99.556 166.8397
391.632450 99.652 166.8531
394.470380 99.754 166.8660
397.328875 99.860 166.8776
400.208084 99.969 166.8866
403.108157 100.077 166.8919
406.029245 100.184 166.8923
408.971500 100.289 166.8864
411.935076 100.392 166.8730
414.920127 100.492 166.8512
417.926810 100.590 166.8201
420.955280 100.686 166.7795
424.005695 100.780 166.7295
427.078215 100.874 166.6703
430.173000 100.967 166.6027
433.290211 101.060 166.5275
436.430010 101.152 166.4456
439.592562 101.242 166.3579
442.778031 101.331 166.2653
445.986583 101.415 166.1682
449.218386 101.495 166.0671
452.473607 101.569 165.9622
455.752418 101.634 165.8534
459.054987 101.691 165.7408
462.381489 101.737 165.6245
465.732096 101.772 165.5046
469.106983 101.796 165.3816
472.506325 101.810 165.2560
475.930301 101.812 165.1286
479.379088 101.806 165.0001
482.852867 101.790 164.8710
486.351817 101.766 164.7424
489.876123 101.736 164.6147
493.425968 101.700 164.4888
497.001536 101.659 164.3654
500.603014 101.613 164.2450
504.230589 101.563 164.1283
507.884452 101.510 164.0156
511.564792 101.453 163.9072
515.271802 101.393 163.8029
519.005673 101.330 163.7027
522.766602 101.266 163.6061
526.554785 101.201 163.5128
530.370418 101.138 163.4222
534.213700 101.079 163.3336
538.084833 101.024 163.2464
541.984018 100.977 163.1602
545.911457 100.938 163.0745
549.867357 100.908 162.9891
553.851922 100.888 162.9039
557.865362 100.877 162.8189
561.907884 100.872 162.7341
565.979700 100.874 162.6497
570.081022 100.879 162.5656
574.212064 100.886 162.4816
578.373042 100.893 162.3978
582.564171 100.897 162.3137
586.785671 100.897 162.2290
591.037762 100.892 162.1435
595.320665 100.880 162.0569
599.634604 100.861 161.9689
603.979804 100.836 161.8794
608.356491 100.803 161.7882
612.764893 100.763 161.6952
617.205240 100.716 161.6001
621.677763 100.665 161.5027
626.182696 100.610 161.4030
630.720274 100.552 161.3008
635.290733 100.493 161.1960
639.894312 100.436 161.0888
644.531250 100.381 160.9797
649.201789 100.331 160.8691
653.906173 100.286 160.7580
658.644647 100.248 160.6475
663.417457 100.216 160.5388
668.224854 100.189 160.4331
673.067086 100.167 160.3318
677.944408 100.149 160.2361
682.857073 100.133 160.1469
687.805336 100.117 160.0648
692.789457 100.100 159.9904
697.809695 100.082 159.9236
702.866312 100.060 159.8641
707.959571 100.034 159.8113
713.089738 100.004 159.7643
718.257080 99.970 159.7224
723.461867 99.932 159.6844
728.704370 99.889 159.6499
733.984862 99.843 159.6185
739.303619 99.794 159.5901
744.660918 99.743 159.5651
750.057038 99.689 159.5441
755.492260 99.634 159.5275
760.966869 99.578 159.5161
766.481148 99.521 159.5102
772.035387 99.462 159.5099
777.629873 99.400 159.5148
783.264900 99.336 159.5244
788.940760 99.269 159.5377
794.657750 99.198 159.5537
800.416168 99.121 159.5716
806.216313 99.040 159.5905
812.058489 98.952 159.6099
817.943000 98.859 159.6293
823.870152 98.760 159.6487
829.840255 98.656 159.6683
835.853619 98.546 159.6887
841.910559 98.433 159.7101
848.011390 98.316 159.7330
854.156430 98.196 159.7576
860.346000 98.076 159.7835
866.580422 97.955 159.8104
872.860020 97.834 159.8376
879.185124 97.716 159.8641
885.556062 97.600 159.8892
891.973166 97.488 159.9120
898.436771 97.381 159.9322
904.947215 97.280 159.9493
911.504835 97.185 159.9630
918.109975 97.099 159.9732
924.762978 97.021 159.9797
931.464192 96.952 159.9821
938.213966 96.892 159.9806
945.012651 96.840 159.9755
951.860602 96.796 159.9684
958.758176 96.758 159.9621
965.705733 96.726 159.9615
972.703635 96.697 159.9734
979.752246 96.671 160.0070
986.851935 96.646 160.0727
994.003071 96.623 160.1823
1001.206027 96.602 160.3470
1008.461179 96.584 160.5779
1015.768904 96.572 160.8842
1023.129584 96.569 161.2729
1030.543603 96.578 161.7489
1038.011347 96.603 162.3129
1045.533205 96.648 162.9612
1053.109569 96.718 163.6840
1060.740836 96.815 164.4639
1068.427401 96.941 165.2752
1076.169666 97.097 166.0840
1083.968035 97.279 166.8500
1091.822915 97.484 167.5306
1099.734713 97.705 168.0858
1107.703844 97.934 168.4838
1115.730723 98.163 168.7059
1123.815768 98.383 168.7479
1131.959400 98.589 168.6203
1140.162045 98.774 168.3453
1148.424129 98.936 167.9529
1156.746083 99.073 167.4765
1165.128342 99.187 166.9491
1173.571343 99.278 166.4003
1182.075524 99.351 165.8546
1190.641331 99.408 165.3310
1199.269209 99.453 164.8425
1207.959608 99.489 164.3973
1216.712981 99.520 163.9993
1225.529785 99.548 163.6492
1234.410479 99.574 163.3453
1243.355526 99.599 163.0844
1252.365393 99.624 162.8625
1261.440549 99.649 162.6750
1270.581467 99.673 162.5175
1279.788624 99.696 162.3859
1289.062500 99.717 162.2763
1298.403578 99.736 162.1853
1307.812346 99.753 162.1102
1317.289293 99.768 162.0486
1326.834914 99.781 161.9985
1336.449707 99.791 161.9583
1346.134173 99.800 161.9267
1355.888816 99.808 161.9023
1365.714145 99.814 161.8840
1375.610673 99.818 161.8708
1385.578915 99.822 161.8615
1395.619391 99.823 161.8552
1405.732624 99.824 161.8507
1415.919142 99.824 161.8471
1426.179476 99.822 161.8435
1436.514160 99.821 161.8390
1446.923734 99.819 161.8331
1457.408740 99.819 161.8251
1467.969724 99.820 161.8147
1478.607238 99.823 161.8017
1489.321836 99.829 161.7857
1500.114076 99.839 161.7667
1510.984521 99.851 161.7444
1521.933737 99.867 161.7188
1532.962297 99.886 161.6895
1544.070773 99.908 161.6564
1555.259747 99.933 161.6192
1566.529800 99.959 161.5776
1577.881521 99.986 161.5313
1589.315501 100.013 161.4803
1600.832336 100.040 161.4244
1612.432627 100.066 161.3638
1624.116978 100.092 161.2983
1635.886000 100.115 161.2284
1647.740304 100.138 161.1542
1659.680509 100.158 161.0760
1671.707238 100.177 160.9945
1683.821118 100.195 160.9100
1696.022780 100.212 160.8233
1708.312860 100.228 160.7350
1720.692000 100.243 160.6458
1733.160843 100.258 160.5563
1745.720041 100.272 160.4673
1758.370248 100.285 160.3793
1771.112124 100.296 160.2932
1783.946332 100.306 160.2094
1796.873543 100.314 160.1287
1809.894429 100.320 160.0516
1823.009670 100.322 159.9788
1836.219950 100.321 159.9109
1849.525956 100.316 159.8487
1862.928384 100.308 159.7927
1876.427931 100.297 159.7437
1890.025301 100.283 159.7022
1903.721204 100.266 159.6690
1917.516352 100.247 159.6447
1931.411466 100.225 159.6300
1945.407270 100.200 159.6255
1959.504493 100.172 159.6318
1973.703870 100.140 159.6493
1988.006142 100.103 159.6786
2002.412054 100.061 159.7202
2016.922357 100.013 159.7744
2031.537808 99.957 159.8418
2046.259169 99.893 159.9229
2061.087206 99.821 160.0185
2076.022694 99.741 160.1295
2091.066410 99.651 160.2568
2106.219139 99.554 160.4017
2121.481671 99.448 160.5651
2136.854802 99.336 160.7479
2152.339333 99.218 160.9508
2167.936071 99.097 161.1741
2183.645829 98.972 161.4177
2199.469427 98.847 161.6814
2215.407689 98.722 161.9646
2231.461446 98.599 162.2665
2247.631536 98.478 162.5863
2263.918800 98.362 162.9232
2280.324089 98.249 163.2762
2296.848258 98.142 163.6448
2313.492167 98.039 164.0284
2330.256685 97.942 164.4265
2347.142685 97.849 164.8391
2364.151049 97.761 165.2658
2381.282662 97.677 165.7068
2398.538418 97.597 166.1622
2415.919216 97.521 166.6319
2433.425962 97.450 167.1161
2451.059570 97.383 167.6147
2468.820958 97.320 168.1278
2486.711052 97.262 168.6550
2504.730786 97.210 169.1960
2522.881098 97.165 169.7500
2541.162934 97.127 170.3160
2559.577248 97.098 170.8928
2578.125000 97.079 171.4788
2596.807157 97.071 172.0724
2615.624692 97.075 172.6718
2634.578586 97.092 173.2748
2653.669829 97.123 173.8795
2672.899414 97.168 174.4834
2692.268345 97.226 175.0841
2711.777632 97.299 175.6789
2731.428290 97.384 176.2650
2751.221345 97.481 176.8397
2771.157829 97.588 177.4002
2791.238781 97.703 177.9445
2811.465248 97.825 178.4707
2831.838284 97.950 178.9780
2852.358952 98.076 179.4663
2873.028321 98.201 179.9360
2893.847468 98.323 -179.6114
2914.817480 98.440 -179.1741
2935.939449 98.550 -178.7496
2957.214476 98.652 -178.3355
2978.643672 98.745 -177.9291
3000.228152 98.829 -177.5276
3021.969041 98.903 -177.1289
3043.867475 98.967 -176.7305
3065.924593 99.022 -176.3308
3088.141547 99.068 -175.9281
3110.519493 99.106 -175.5212
3133.059600 99.137 -175.1093
3155.763041 99.162 -174.6918
3178.631001 99.182 -174.2684
3201.664672 99.199 -173.8390
3224.865254 99.213 -173.4035
3248.233957 99.225 -172.9619
3271.771999 99.238 -172.5140
3295.480608 99.250 -172.0599
3319.361019 99.264 -171.5992
3343.414477 99.279 -171.1319
3367.642236 99.296 -170.6576
3392.045560 99.317 -170.1762
3416.625721 99.340 -169.6877
3441.383999 99.368 -169.1919
3466.321686 99.400 -168.6890
3491.440082 99.437 -168.1790
3516.740496 99.480 -167.6623
3542.224247 99.530 -167.1395
3567.892664 99.588 -166.6118
3593.747085 99.654 -166.0807
3619.788858 99.730 -165.5486
3646.019340 99.816 -165.0178
3672.439900 99.913 -164.4915
3699.051913 100.021 -163.9726
3725.856768 100.139 -163.4642
3752.855862 100.268 -162.9694
3780.050603 100.408 -162.4913
3807.442408 100.558 -162.0327
3835.032705 100.717 -161.5962
3862.822933 100.884 -161.1840
3890.814540 101.060 -160.7978
3919.008986 101.242 -160.4389
3947.407741 101.430 -160.1082
3976.012284 101.622 -159.8064
4004.824108 101.820 -159.5342
4033.844715 102.020 -159.2924
4063.075616 102.224 -159.0817
4092.518337 102.431 -158.9031
4122.174412 102.640 -158.7576
4152.045387 102.851 -158.6466
4182.132820 103.065 -158.5716
4212.438278 103.281 -158.5348
4242.963342 103.500 -158.5392
4273.709604 103.721 -158.5891
4304.678665 103.946 -158.6899
4335.872141 104.174 -158.8490
4367.291658 104.404 -159.0748
4398.938854 104.636 -159.3772
4430.815378 104.869 -159.7663
4462.922893 105.100 -160.2524
4495.263072 105.329 -160.8449
4527.837601 105.552 -161.5524
4560.648179 105.768 -162.3813
4593.696515 105.974 -163.3362
4626.984334 106.168 -164.4192
4660.513370 106.347 -165.6297
4694.285371 106.509 -166.9643
4728.302098 106.653 -168.4169
4762.565324 106.775 -169.9786
4797.076835 106.875 -171.6377
4831.838432 106.952 -173.3803
4866.851925 107.004 -175.1897
4902.119140 107.030 -177.0478
4937.641916 107.031 -178.9348
4973.422105 107.006 179.1702
5009.461572 106.956 177.2885
5045.762195 106.881 175.4413
5082.325868 106.782 173.6498
5119.154496 106.662 171.9335
5156.250000 106.522 170.3110
5193.614313 106.364 168.7988
5231.249383 106.191 167.4117
5269.157173 106.005 166.1615
5307.339658 105.809 165.0578
5345.798829 105.607 164.1070
5384.536691 105.401 163.3125
5423.555263 105.194 162.6745
5462.856580 104.992 162.1896
5502.442691 104.796 161.8512
5542.315659 104.610 161.6487
5582.477563 104.440 161.5678
5622.930497 104.287 161.5905
5663.676569 104.157 161.6951
5704.717904 104.051 161.8569
5746.056642 103.974 162.0485
5787.694937 103.925 162.2413
5829.634960 103.907 162.4058
5871.878898 103.919 162.5138
5914.428953 103.959 162.5385
5957.287343 104.023 162.4562
6000.456303 104.109 162.2468
6043.938083 104.210 161.8945
6087.734950 104.322 161.3878
6131.849187 104.439 160.7197
6176.283094 104.555 159.8875
6221.038987 104.664 158.8927
6266.119200 104.760 157.7404
6311.526083 104.839 156.4390
6357.262002 104.896 154.9998
6403.329344 104.927 153.4366
6449.730508 104.929 151.7652
6496.467914 104.899 150.0034
6543.543998 104.836 148.1702
6590.961215 104.737 146.2860
6638.722037 104.603 144.3721
6686.828954 104.431 142.4503
6735.284473 104.224 140.5434
6784.091120 103.980 138.6739
6833.251441 103.702 136.8646
6882.767998 103.390 135.1382
6932.643372 103.047 133.5170
6982.880164 102.673 132.0226
7033.480992 102.273 130.6760
7084.448495 101.847 129.4977
7135.785329 101.400 128.5072
7187.494171 100.935 127.7232
7239.577717 100.454 127.1634
7292.038681 99.961 126.8438
7344.879799 99.461 126.7788
7398.103826 98.958 126.9792
7451.713536 98.456 127.4511
7505.711724 97.960 128.1940
7560.101205 97.477 129.1975
7614.884815 97.011 130.4390
7670.065409 96.569 131.8803
7725.645865 96.157 133.4661
7781.629080 95.781 135.1238
7838.017972 95.444 136.7665
7894.815481 95.151 138.2988
7952.024569 94.900 139.6260
8009.648217 94.688 140.6647
8067.689429 94.512 141.3538
8126.151233 94.361 141.6644
8185.036674 94.226 141.6093
8244.348824 94.099 141.2544
8304.090774 93.972 140.7370
8364.265639 93.843 140.3044
8424.876556 93.714 140.4023
8485.926684 93.598 141.8998
8547.419207 93.512 146.7262
8609.357330 93.479 159.6963
8671.744282 93.521 -170.4747
8734.583316 93.651 -135.2607
8797.877707 93.873 -117.4926
8861.630756 94.175 -111.0155
8925.845785 94.537 -109.3374
8990.526143 94.936 -109.8683
9055.675202 95.347 -111.5289
9121.296357 95.752 -113.8080
9187.393031 96.134 -116.4346
9253.968668 96.484 -119.2518
9321.026740 96.794 -122.1621
9388.570742 97.060 -125.1020
9456.604196 97.281 -128.0285
9525.130648 97.455 -130.9117
9594.153671 97.581 -133.7307
9663.676863 97.661 -136.4704
9733.703850 97.696 -139.1196
9804.238280 97.686 -141.6696
9875.283832 97.634 -144.1133
9946.844210 97.541 -146.4448
10018.923143 97.412 -148.6595
10091.524390 97.250 -150.7547
10164.651736 97.058 -152.7298
10238.308993 96.842 -154.5866
10312.500000 96.605 -156.3299
10387.228626 96.353 -157.9665
10462.498767 96.089 -159.5053
10538.314345 95.816 -160.9553
10614.679315 95.538 -162.3250
10691.597657 95.254 -163.6212
10769.073381 94.964 -164.8479
10847.110526 94.669 -166.0060
10925.713161 94.366 -167.0939
11004.885382 94.053 -168.1071
11084.631318 93.728 -169.0398
11164.955126 93.391 -169.8851
11245.860993 93.038 -170.6368
11327.353138 92.670 -171.2900
11409.435808 92.288 -171.8426
11492.113283 91.892 -172.2973
11575.389873 91.484 -172.6627
11659.269920 91.069 -172.9557
11743.757796 90.650 -173.2018
11828.857906 90.233 -173.4351
11914.574686 89.820 -173.6965
12000.912606 89.414 -174.0293
12087.876166 89.017 -174.4749
12175.469900 88.628 -175.0670
12263.698373 88.243 -175.8275
12352.566187 87.855 -176.7633
12442.077974 87.458 -177.8645
12532.238400 87.043 -179.1044
12623.052165 86.602 179.5603
12714.524005 86.125 178.1893
12806.658687 85.607 176.8595
12899.461015 85.041 175.6669
12992.935827 84.425 174.7308
13087.087996 83.758 174.2019
13181.922430 83.042 174.2748
13277.444074 82.284 175.2060
13373.657907 81.495 177.3346
13470.568945 80.692 -178.9107
13568.182241 79.898 -173.0693
13666.502883 79.143 -164.8771
13765.535996 78.463 -154.7229
13865.286744 77.890 -143.9529
13965.760328 77.445 -134.3076
14066.961984 77.135 -126.8782
14168.896989 76.944 -121.8152
14271.570658 76.842 -118.7489
14374.988342 76.790 -117.1930
14479.155433 76.751 -116.7133
14584.077362 76.695 -116.9580
14689.759598 76.599 -117.6419
14796.207652 76.448 -118.5246
14903.427072 76.235 -119.3932
15011.423448 75.961 -120.0538
15120.202410 75.633 -120.3316
15229.769630 75.267 -120.0826
15340.130819 74.882 -119.2166
15451.291730 74.507 -117.7312
15563.258160 74.170 -115.7443
15676.035944 73.899 -113.5023
15789.630962 73.710 -111.3404
15904.049137 73.609 -109.6007
16019.296433 73.585 -108.5493
16135.378859 73.616 -108.3320
16252.302465 73.677 -108.9815
16370.073348 73.740 -110.4508
16488.697648 73.783 -112.6509
16608.181548 73.790 -115.4795
16728.531278 73.749 -118.8364
16849.753112 73.653 -122.6313
16971.853368 73.498 -126.7864
17094.838414 73.286 -131.2353
17218.714660 73.018 -135.9218
17343.488565 72.702 -140.7971
17469.166632 72.347 -145.8183
17595.755415 71.971 -150.9463
17723.261512 71.597 -156.1444
17851.691571 71.255 -161.3757
17981.052287 70.985 -166.5961
18111.350404 70.823 -171.7336
18242.592715 70.800 -176.6309
18374.786062 70.927 179.1287
18507.937336 71.193 176.8850
18642.053479 71.568 -176.9372
18777.141484 72.010 -110.3886
18913.208391 72.481 -61.7833
19050.261296 72.947 -58.8414
19188.307342 73.382 -62.3082
19327.353727 73.767 -67.3049
19467.407699 74.092 -72.4837
19608.476560 74.352 -77.2095
19750.567664 74.544 -81.0814
19893.688419 74.671 -83.8190
20037.846286 74.734 -85.2354
