* Measurement data measured by REW V5.31.3
* Source: EXCL: Headset (USB-C to 3.5mm Headphone Jack Adapter), MICROPHONE (Master Volume), 0, volume: 0.250
* Format: 256k Log Swept Sine, 1 sweep at -12.0 dBFS with no timing reference
* Dated: Feb 9, 2025 5:06:51 PM
* REW Settings:
*  C-weighting compensation: Off
*  Target level: 75.0 dB
* Note: ; 
* Measurement: Ouroboros (Golem Mod) R8
* Smoothing: 1/6 octave
* Frequency Step: 96 ppo
* Start Frequency: 20.0 Hz
*
* Freq(Hz) SPL(dB) Phase(degrees)
20.141602 104.686 -112.4019
20.287556 104.697 -112.6532
20.434568 104.708 -112.9891
20.582645 104.718 -113.3990
20.731796 104.720 -113.8706
20.882027 104.713 -114.3910
21.033346 104.692 -114.9474
21.185763 104.656 -115.5273
21.339284 104.604 -116.1199
21.493917 104.535 -116.7159
21.649671 104.450 -117.3083
21.806553 104.351 -117.8924
21.964572 104.238 -118.4662
22.123737 104.116 -119.0295
22.284054 103.986 -119.5845
22.445534 103.851 -120.1347
22.608183 103.715 -120.6845
22.772012 103.578 -121.2388
22.937027 103.445 -121.8023
23.103238 103.316 -122.3794
23.270654 103.194 -122.9735
23.439282 103.080 -123.5871
23.609133 102.975 -124.2217
23.780215 102.882 -124.8782
23.952536 102.800 -125.5562
24.126106 102.730 -126.2548
24.300934 102.673 -126.9721
24.477028 102.629 -127.7054
24.654399 102.597 -128.4511
24.833055 102.575 -129.2047
25.013005 102.564 -129.9609
25.194260 102.562 -130.7142
25.376828 102.567 -131.4585
25.560719 102.578 -132.1885
25.745942 102.593 -132.8997
25.932508 102.612 -133.5888
26.120426 102.634 -134.2540
26.309705 102.655 -134.8951
26.500356 102.676 -135.5126
26.692388 102.694 -136.1081
26.885812 102.707 -136.6827
27.080638 102.713 -137.2371
27.276876 102.712 -137.7710
27.474535 102.701 -138.2834
27.673627 102.682 -138.7728
27.874161 102.654 -139.2379
28.076149 102.621 -139.6789
28.279600 102.584 -140.0979
28.484526 102.548 -140.4993
28.690937 102.517 -140.8902
28.898843 102.495 -141.2795
29.108256 102.486 -141.6765
29.319186 102.493 -142.0896
29.531645 102.517 -142.5242
29.745644 102.557 -142.9818
29.961193 102.613 -143.4595
30.178304 102.681 -143.9498
30.396989 102.757 -144.4423
30.617258 102.837 -144.9256
30.839123 102.917 -145.3889
31.062596 102.993 -145.8249
31.287688 103.059 -146.2303
31.514412 103.112 -146.6070
31.742778 103.147 -146.9612
31.972800 103.162 -147.3022
32.204488 103.152 -147.6401
32.437855 103.115 -147.9841
32.672913 103.050 -148.3405
32.909674 102.955 -148.7113
33.148151 102.832 -149.0945
33.388356 102.681 -149.4844
33.630302 102.505 -149.8724
33.874001 102.308 -150.2492
34.119466 102.094 -150.6055
34.366710 101.868 -150.9341
34.615745 101.635 -151.2304
34.866585 101.401 -151.4929
35.119243 101.169 -151.7232
35.373731 100.944 -151.9255
35.630064 100.729 -152.1057
35.888254 100.528 -152.2707
36.148315 100.344 -152.4270
36.410261 100.177 -152.5805
36.674104 100.030 -152.7355
36.939860 99.905 -152.8941
37.207542 99.802 -153.0567
37.477163 99.722 -153.2217
37.748738 99.666 -153.3862
38.022281 99.635 -153.5465
38.297806 99.628 -153.6992
38.575327 99.646 -153.8415
38.854860 99.688 -153.9723
39.136419 99.753 -154.0921
39.420017 99.840 -154.2029
39.705671 99.948 -154.3082
39.993395 100.074 -154.4116
40.283203 100.217 -154.5167
40.575112 100.377 -154.6264
40.869136 100.551 -154.7419
41.165290 100.738 -154.8635
41.463591 100.936 -154.9900
41.764053 101.145 -155.1194
42.066693 101.360 -155.2498
42.371525 101.581 -155.3790
42.678567 101.805 -155.5058
42.987834 102.028 -155.6296
43.299341 102.248 -155.7507
43.613106 102.462 -155.8700
43.929145 102.667 -155.9887
44.247473 102.862 -156.1081
44.568109 103.044 -156.2288
44.891068 103.212 -156.3512
45.216367 103.364 -156.4749
45.544023 103.501 -156.5991
45.874054 103.622 -156.7233
46.206476 103.726 -156.8475
46.541307 103.815 -156.9723
46.878565 103.887 -157.0993
47.218266 103.944 -157.2308
47.560429 103.985 -157.3693
47.905072 104.011 -157.5173
48.252212 104.021 -157.6766
48.601867 104.018 -157.8485
48.954056 104.001 -158.0333
49.308798 103.973 -158.2303
49.666109 103.935 -158.4383
50.026010 103.888 -158.6550
50.388520 103.836 -158.8777
50.753656 103.780 -159.1030
51.121437 103.721 -159.3270
51.491884 103.663 -159.5457
51.865016 103.606 -159.7556
52.240851 103.551 -159.9537
52.619410 103.500 -160.1379
53.000712 103.452 -160.3076
53.384777 103.409 -160.4630
53.771625 103.369 -160.6048
54.161276 103.333 -160.7343
54.553751 103.299 -160.8522
54.949070 103.267 -160.9592
55.347254 103.236 -161.0555
55.748323 103.205 -161.1409
56.152298 103.174 -161.2153
56.559201 103.142 -161.2788
56.969052 103.110 -161.3314
57.381873 103.076 -161.3736
57.797686 103.041 -161.4061
58.216512 103.005 -161.4296
58.638373 102.968 -161.4456
59.063291 102.930 -161.4558
59.491288 102.893 -161.4624
59.922386 102.855 -161.4678
60.356608 102.818 -161.4746
60.793977 102.781 -161.4852
61.234515 102.747 -161.5017
61.678246 102.715 -161.5262
62.125192 102.686 -161.5605
62.575377 102.661 -161.6062
63.028824 102.641 -161.6641
63.485557 102.626 -161.7348
63.945599 102.617 -161.8185
64.408975 102.613 -161.9149
64.875709 102.616 -162.0236
65.345825 102.624 -162.1449
65.819348 102.639 -162.2794
66.296302 102.658 -162.4286
66.776713 102.682 -162.5943
67.260604 102.711 -162.7782
67.748002 102.744 -162.9819
68.238932 102.780 -163.2060
68.733420 102.820 -163.4506
69.231490 102.862 -163.7153
69.733170 102.906 -163.9995
70.238485 102.952 -164.3027
70.747463 103.000 -164.6244
71.260128 103.049 -164.9642
71.776508 103.100 -165.3216
72.296630 103.151 -165.6961
72.820521 103.203 -166.0872
73.348209 103.255 -166.4943
73.879720 103.308 -166.9171
74.415083 103.360 -167.3552
74.954326 103.411 -167.8085
75.497475 103.461 -168.2771
76.044561 103.509 -168.7610
76.595612 103.556 -169.2600
77.150655 103.599 -169.7740
77.709720 103.639 -170.3027
78.272837 103.675 -170.8453
78.840034 103.707 -171.4013
79.411342 103.733 -171.9702
79.986789 103.754 -172.5514
80.566406 103.770 -173.1446
81.150224 103.780 -173.7493
81.738272 103.785 -174.3649
82.330581 103.785 -174.9905
82.927182 103.782 -175.6252
83.528107 103.776 -176.2681
84.133386 103.769 -176.9181
84.743051 103.763 -177.5746
85.357134 103.762 -178.2367
85.975667 103.767 -178.9040
86.598682 103.782 -179.5757
87.226212 103.810 179.7487
87.858289 103.854 179.0700
88.494946 103.917 178.3891
89.136217 104.000 177.7068
89.782135 104.104 177.0239
90.432733 104.229 176.3413
91.088046 104.372 175.6597
91.748108 104.529 174.9798
92.412952 104.698 174.3020
93.082615 104.872 173.6267
93.757130 105.046 172.9542
94.436533 105.214 172.2846
95.120859 105.373 171.6183
95.810144 105.519 170.9556
96.504423 105.647 170.2969
97.203734 105.757 169.6428
97.908112 105.846 168.9941
98.617595 105.917 168.3514
99.332219 105.968 167.7157
100.052021 106.003 167.0878
100.777039 106.023 166.4687
101.507311 106.030 165.8591
102.242875 106.026 165.2598
102.983769 106.013 164.6713
103.730032 105.993 164.0939
104.481702 105.966 163.5278
105.238820 105.933 162.9727
106.001424 105.892 162.4285
106.769554 105.842 161.8950
107.543250 105.784 161.3719
108.322553 105.713 160.8596
109.107503 105.631 160.3583
109.898141 105.534 159.8685
110.694508 105.422 159.3910
111.496646 105.295 158.9266
112.304596 105.154 158.4762
113.118402 104.999 158.0407
113.938104 104.831 157.6209
114.763747 104.653 157.2172
115.595372 104.466 156.8301
116.433024 104.272 156.4595
117.276746 104.075 156.1055
118.126581 103.875 155.7679
118.982575 103.675 155.4466
119.844772 103.476 155.1413
120.713217 103.278 154.8522
121.587954 103.081 154.5797
122.469031 102.886 154.3245
123.356492 102.692 154.0876
124.250384 102.497 153.8701
125.150753 102.301 153.6730
126.057647 102.102 153.4976
126.971113 101.899 153.3445
127.891198 101.690 153.2144
128.817950 101.474 153.1076
129.751418 101.252 153.0244
130.691651 101.023 152.9648
131.638696 100.788 152.9292
132.592604 100.547 152.9179
133.553425 100.304 152.9313
134.521208 100.059 152.9701
135.496004 99.817 153.0346
136.477864 99.580 153.1255
137.466839 99.352 153.2430
138.462981 99.136 153.3875
139.466340 98.937 153.5588
140.476971 98.755 153.7569
141.494925 98.593 153.9813
142.520256 98.452 154.2319
143.553016 98.329 154.5084
144.593260 98.223 154.8109
145.641043 98.131 155.1394
146.696418 98.050 155.4944
147.759441 97.975 155.8760
148.830166 97.903 156.2845
149.908651 97.832 156.7196
150.994951 97.759 157.1809
152.089123 97.682 157.6673
153.191223 97.602 158.1774
154.301310 97.520 158.7095
155.419441 97.436 159.2617
156.545674 97.352 159.8318
157.680069 97.271 160.4175
158.822683 97.194 161.0164
159.973578 97.122 161.6262
161.132813 97.058 162.2445
162.300447 97.002 162.8690
163.476543 96.954 163.4977
164.661162 96.916 164.1283
165.854364 96.887 164.7589
167.056213 96.867 165.3873
168.266772 96.857 166.0114
169.486102 96.856 166.6292
170.714268 96.865 167.2385
171.951334 96.883 167.8377
173.197364 96.911 168.4250
174.452424 96.948 168.9991
175.716578 96.994 169.5587
176.989893 97.047 170.1025
178.272434 97.106 170.6294
179.564270 97.170 171.1379
180.865467 97.238 171.6268
182.176092 97.307 172.0945
183.496216 97.377 172.5397
184.825905 97.447 172.9612
186.165229 97.515 173.3584
187.514259 97.582 173.7308
188.873065 97.648 174.0785
190.241717 97.713 174.4018
191.620287 97.778 174.7012
193.008847 97.842 174.9775
194.407468 97.906 175.2316
195.816225 97.971 175.4641
197.235190 98.036 175.6757
198.664438 98.101 175.8668
200.104042 98.165 176.0377
201.554078 98.228 176.1886
203.014622 98.289 176.3199
204.485750 98.347 176.4319
205.967538 98.402 176.5253
207.460064 98.453 176.6008
208.963405 98.500 176.6594
210.477640 98.542 176.7018
212.002848 98.580 176.7289
213.539108 98.614 176.7417
215.086500 98.645 176.7408
216.645105 98.672 176.7269
218.215005 98.697 176.7005
219.796281 98.718 176.6621
221.389015 98.736 176.6124
222.993292 98.749 176.5518
224.609193 98.759 176.4809
226.236804 98.763 176.4004
227.876209 98.760 176.3110
229.527494 98.752 176.2135
231.190745 98.736 176.1087
232.866048 98.714 175.9977
234.553491 98.685 175.8815
236.253163 98.649 175.7610
237.965150 98.609 175.6375
239.689544 98.563 175.5116
241.426433 98.514 175.3846
243.175909 98.463 175.2573
244.938062 98.410 175.1307
246.712984 98.356 175.0058
248.500768 98.303 174.8834
250.301507 98.250 174.7643
252.115295 98.200 174.6494
253.942226 98.153 174.5393
255.782396 98.109 174.4347
257.635901 98.069 174.3364
259.502837 98.033 174.2450
261.383301 98.003 174.1610
263.277392 97.978 174.0849
265.185209 97.960 174.0168
267.106850 97.947 173.9569
269.042417 97.940 173.9051
270.992009 97.939 173.8614
272.955729 97.943 173.8257
274.933678 97.952 173.7977
276.925961 97.966 173.7771
278.932681 97.984 173.7633
280.953942 98.005 173.7555
282.989850 98.030 173.7525
285.040511 98.059 173.7531
287.106032 98.091 173.7559
289.186521 98.129 173.7590
291.282086 98.172 173.7608
293.392836 98.222 173.7594
295.518881 98.278 173.7530
297.660333 98.341 173.7399
299.817302 98.410 173.7189
301.989902 98.484 173.6889
304.178245 98.562 173.6491
306.382446 98.643 173.5991
308.602620 98.723 173.5389
310.838882 98.802 173.4687
313.091348 98.876 173.3888
315.360137 98.946 173.3000
317.645367 99.008 173.2030
319.947156 99.062 173.0989
322.265625 99.106 172.9885
324.600895 99.141 172.8729
326.953086 99.164 172.7530
329.322323 99.176 172.6296
331.708729 99.177 172.5036
334.112427 99.166 172.3757
336.533543 99.143 172.2466
338.972204 99.109 172.1173
341.428536 99.064 171.9886
343.902668 99.010 171.8613
346.394729 98.947 171.7361
348.904848 98.878 171.6138
351.433156 98.804 171.4947
353.979786 98.728 171.3791
356.544869 98.652 171.2671
359.128540 98.579 171.1587
361.730934 98.512 171.0539
364.352185 98.454 170.9524
366.992431 98.408 170.8541
369.651810 98.376 170.7587
372.330459 98.360 170.6663
375.028519 98.361 170.5768
377.746130 98.379 170.4902
380.483434 98.414 170.4066
383.240574 98.465 170.3264
386.017693 98.529 170.2496
388.814937 98.603 170.1764
391.632450 98.686 170.1069
394.470380 98.774 170.0411
397.328875 98.864 169.9790
400.208084 98.955 169.9203
403.108157 99.044 169.8651
406.029245 99.131 169.8127
408.971500 99.215 169.7629
411.935076 99.294 169.7156
414.920127 99.371 169.6703
417.926810 99.444 169.6273
420.955280 99.516 169.5866
424.005695 99.586 169.5488
427.078215 99.655 169.5143
430.173000 99.723 169.4841
433.290211 99.792 169.4588
436.430010 99.861 169.4392
439.592562 99.929 169.4260
442.778031 99.996 169.4198
445.986583 100.059 169.4213
449.218386 100.119 169.4310
452.473607 100.173 169.4492
455.752418 100.220 169.4760
459.054987 100.259 169.5114
462.381489 100.289 169.5551
465.732096 100.309 169.6063
469.106983 100.319 169.6642
472.506325 100.320 169.7275
475.930301 100.312 169.7949
479.379088 100.295 169.8651
482.852867 100.272 169.9367
486.351817 100.244 170.0089
489.876123 100.210 170.0809
493.425968 100.172 170.1523
497.001536 100.131 170.2230
500.603014 100.087 170.2931
504.230589 100.040 170.3629
507.884452 99.989 170.4329
511.564792 99.936 170.5040
515.271802 99.880 170.5769
519.005673 99.822 170.6526
522.766602 99.762 170.7321
526.554785 99.702 170.8165
530.370418 99.644 170.9065
534.213700 99.589 171.0025
538.084833 99.541 171.1045
541.984018 99.502 171.2116
545.911457 99.473 171.3221
549.867357 99.456 171.4334
553.851922 99.451 171.5424
557.865362 99.457 171.6455
561.907884 99.473 171.7391
565.979700 99.497 171.8202
570.081022 99.526 171.8859
574.212064 99.558 171.9344
578.373042 99.591 171.9644
582.564171 99.621 171.9753
586.785671 99.647 171.9674
591.037762 99.667 171.9413
595.320665 99.680 171.8979
599.634604 99.684 171.8388
603.979804 99.681 171.7654
608.356491 99.668 171.6794
612.764893 99.648 171.5828
617.205240 99.619 171.4775
621.677763 99.584 171.3655
626.182696 99.544 171.2488
630.720274 99.500 171.1293
635.290733 99.454 171.0087
639.894312 99.408 170.8888
644.531250 99.363 170.7708
649.201789 99.322 170.6559
653.906173 99.286 170.5451
658.644647 99.255 170.4390
663.417457 99.229 170.3383
668.224854 99.208 170.2435
673.067086 99.192 170.1555
677.944408 99.178 170.0748
682.857073 99.166 170.0023
687.805336 99.153 169.9390
692.789457 99.139 169.8858
697.809695 99.123 169.8438
702.866312 99.102 169.8141
707.959571 99.077 169.7978
713.089738 99.046 169.7958
718.257080 99.011 169.8089
723.461867 98.971 169.8377
728.704370 98.927 169.8825
733.984862 98.879 169.9432
739.303619 98.829 170.0196
744.660918 98.777 170.1106
750.057038 98.725 170.2151
755.492260 98.674 170.3315
760.966869 98.623 170.4580
766.481148 98.573 170.5923
772.035387 98.524 170.7319
777.629873 98.476 170.8743
783.264900 98.428 171.0170
788.940760 98.379 171.1572
794.657750 98.328 171.2927
800.416168 98.274 171.4216
806.216313 98.216 171.5423
812.058489 98.153 171.6539
817.943000 98.085 171.7563
823.870152 98.011 171.8495
829.840255 97.931 171.9343
835.853619 97.846 172.0117
841.910559 97.757 172.0827
848.011390 97.664 172.1483
854.156430 97.568 172.2089
860.346000 97.471 172.2649
866.580422 97.374 172.3160
872.860020 97.279 172.3615
879.185124 97.186 172.4006
885.556062 97.097 172.4320
891.973166 97.013 172.4544
898.436771 96.935 172.4661
904.947215 96.864 172.4653
911.504835 96.801 172.4503
918.109975 96.745 172.4196
924.762978 96.697 172.3724
931.464192 96.656 172.3091
938.213966 96.621 172.2317
945.012651 96.592 172.1443
951.860602 96.567 172.0530
958.758176 96.546 171.9658
965.705733 96.526 171.8918
972.703635 96.509 171.8401
979.752246 96.493 171.8194
986.851935 96.479 171.8372
994.003071 96.467 171.8992
1001.206027 96.458 172.0099
1008.461179 96.454 172.1727
1015.768904 96.455 172.3898
1023.129584 96.464 172.6635
1030.543603 96.482 172.9954
1038.011347 96.513 173.3867
1045.533205 96.558 173.8376
1053.109569 96.620 174.3463
1060.740836 96.702 174.9082
1068.427401 96.806 175.5142
1076.169666 96.932 176.1497
1083.968035 97.081 176.7935
1091.822915 97.251 177.4183
1099.734713 97.440 177.9918
1107.703844 97.642 178.4798
1115.730723 97.851 178.8505
1123.815768 98.060 179.0794
1131.959400 98.263 179.1541
1140.162045 98.453 179.0762
1148.424129 98.625 178.8612
1156.746083 98.774 178.5353
1165.128342 98.901 178.1307
1173.571343 99.005 177.6806
1182.075524 99.089 177.2154
1190.641331 99.156 176.7604
1199.269209 99.210 176.3347
1207.959608 99.253 175.9513
1216.712981 99.289 175.6177
1225.529785 99.321 175.3369
1234.410479 99.351 175.1088
1243.355526 99.379 174.9305
1252.365393 99.407 174.7978
1261.440549 99.435 174.7057
1270.581467 99.462 174.6489
1279.788624 99.489 174.6224
1289.062500 99.514 174.6216
1298.403578 99.538 174.6430
1307.812346 99.561 174.6837
1317.289293 99.582 174.7416
1326.834914 99.601 174.8153
1336.449707 99.620 174.9037
1346.134173 99.638 175.0056
1355.888816 99.655 175.1198
1365.714145 99.673 175.2446
1375.610673 99.691 175.3783
1385.578915 99.710 175.5190
1395.619391 99.729 175.6647
1405.732624 99.750 175.8134
1415.919142 99.771 175.9631
1426.179476 99.794 176.1118
1436.514160 99.818 176.2576
1446.923734 99.845 176.3987
1457.408740 99.874 176.5330
1467.969724 99.907 176.6590
1478.607238 99.943 176.7748
1489.321836 99.983 176.8791
1500.114076 100.027 176.9705
1510.984521 100.076 177.0479
1521.933737 100.129 177.1106
1532.962297 100.185 177.1581
1544.070773 100.245 177.1902
1555.259747 100.308 177.2072
1566.529800 100.373 177.2094
1577.881521 100.438 177.1977
1589.315501 100.505 177.1728
1600.832336 100.571 177.1357
1612.432627 100.637 177.0873
1624.116978 100.701 177.0283
1635.886000 100.765 176.9590
1647.740304 100.827 176.8798
1659.680509 100.887 176.7907
1671.707238 100.947 176.6919
1683.821118 101.005 176.5831
1696.022780 101.063 176.4644
1708.312860 101.120 176.3356
1720.692000 101.176 176.1968
1733.160843 101.232 176.0482
1745.720041 101.287 175.8901
1758.370248 101.341 175.7228
1771.112124 101.394 175.5468
1783.946332 101.445 175.3626
1796.873543 101.493 175.1708
1809.894429 101.539 174.9722
1823.009670 101.581 174.7673
1836.219950 101.620 174.5569
1849.525956 101.655 174.3418
1862.928384 101.686 174.1228
1876.427931 101.713 173.9009
1890.025301 101.737 173.6769
1903.721204 101.757 173.4517
1917.516352 101.774 173.2262
1931.411466 101.788 173.0012
1945.407270 101.797 172.7776
1959.504493 101.803 172.5562
1973.703870 101.804 172.3378
1988.006142 101.799 172.1232
2002.412054 101.788 171.9133
2016.922357 101.769 171.7091
2031.537808 101.742 171.5114
2046.259169 101.706 171.3211
2061.087206 101.661 171.1391
2076.022694 101.606 170.9661
2091.066410 101.541 170.8029
2106.219139 101.466 170.6502
2121.481671 101.384 170.5085
2136.854802 101.293 170.3787
2152.339333 101.196 170.2613
2167.936071 101.094 170.1568
2183.645829 100.989 170.0654
2199.469427 100.881 169.9872
2215.407689 100.772 169.9217
2231.461446 100.664 169.8683
2247.631536 100.558 169.8259
2263.918800 100.454 169.7937
2280.324089 100.353 169.7705
2296.848258 100.255 169.7556
2313.492167 100.160 169.7485
2330.256685 100.068 169.7492
2347.142685 99.978 169.7578
2364.151049 99.890 169.7751
2381.282662 99.804 169.8022
2398.538418 99.719 169.8403
2415.919216 99.634 169.8911
2433.425962 99.551 169.9561
2451.059570 99.468 170.0369
2468.820958 99.387 170.1351
2486.711052 99.308 170.2519
2504.730786 99.231 170.3885
2522.881098 99.158 170.5457
2541.162934 99.089 170.7240
2559.577248 99.026 170.9234
2578.125000 98.970 171.1436
2596.807157 98.923 171.3835
2615.624692 98.885 171.6418
2634.578586 98.859 171.9164
2653.669829 98.845 172.2045
2672.899414 98.845 172.5031
2692.268345 98.859 172.8082
2711.777632 98.888 173.1160
2731.428290 98.930 173.4221
2751.221345 98.984 173.7225
2771.157829 99.050 174.0136
2791.238781 99.124 174.2924
2811.465248 99.205 174.5568
2831.838284 99.289 174.8057
2852.358952 99.375 175.0388
2873.028321 99.459 175.2566
2893.847468 99.539 175.4601
2914.817480 99.612 175.6506
2935.939449 99.678 175.8295
2957.214476 99.735 175.9982
2978.643672 99.782 176.1579
3000.228152 99.818 176.3101
3021.969041 99.843 176.4559
3043.867475 99.857 176.5969
3065.924593 99.859 176.7347
3088.141547 99.851 176.8709
3110.519493 99.833 177.0078
3133.059600 99.805 177.1474
3155.763041 99.769 177.2924
3178.631001 99.724 177.4451
3201.664672 99.672 177.6083
3224.865254 99.614 177.7849
3248.233957 99.550 177.9775
3271.771999 99.480 178.1895
3295.480608 99.406 178.4241
3319.361019 99.327 178.6848
3343.414477 99.244 178.9756
3367.642236 99.159 179.3006
3392.045560 99.071 179.6641
3416.625721 98.982 -179.9298
3441.383999 98.892 -179.4769
3466.321686 98.803 -178.9735
3491.440082 98.716 -178.4163
3516.740496 98.633 -177.8028
3542.224247 98.556 -177.1311
3567.892664 98.486 -176.4004
3593.747085 98.426 -175.6109
3619.788858 98.378 -174.7642
3646.019340 98.343 -173.8629
3672.439900 98.323 -172.9109
3699.051913 98.319 -171.9133
3725.856768 98.333 -170.8765
3752.855862 98.365 -169.8083
3780.050603 98.416 -168.7182
3807.442408 98.487 -167.6167
3835.032705 98.577 -166.5163
3862.822933 98.686 -165.4307
3890.814540 98.814 -164.3747
3919.008986 98.958 -163.3635
3947.407741 99.118 -162.4120
3976.012284 99.291 -161.5335
4004.824108 99.475 -160.7392
4033.844715 99.667 -160.0376
4063.075616 99.864 -159.4342
4092.518337 100.064 -158.9315
4122.174412 100.264 -158.5299
4152.045387 100.463 -158.2273
4182.132820 100.658 -158.0200
4212.438278 100.847 -157.9034
4242.963342 101.031 -157.8719
4273.709604 101.206 -157.9200
4304.678665 101.373 -158.0418
4335.872141 101.530 -158.2317
4367.291658 101.677 -158.4839
4398.938854 101.811 -158.7924
4430.815378 101.933 -159.1502
4462.922893 102.040 -159.5497
4495.263072 102.133 -159.9819
4527.837601 102.209 -160.4368
4560.648179 102.269 -160.9038
4593.696515 102.313 -161.3719
4626.984334 102.341 -161.8303
4660.513370 102.353 -162.2689
4694.285371 102.352 -162.6788
4728.302098 102.338 -163.0532
4762.565324 102.314 -163.3873
4797.076835 102.283 -163.6788
4831.838432 102.246 -163.9284
4866.851925 102.207 -164.1389
4902.119140 102.168 -164.3158
4937.641916 102.130 -164.4661
4973.422105 102.096 -164.5979
5009.461572 102.067 -164.7197
5045.762195 102.044 -164.8392
5082.325868 102.026 -164.9632
5119.154496 102.013 -165.0968
5156.250000 102.004 -165.2435
5193.614313 102.000 -165.4045
5231.249383 101.998 -165.5797
5269.157173 101.999 -165.7675
5307.339658 102.001 -165.9654
5345.798829 102.003 -166.1705
5384.536691 102.006 -166.3798
5423.555263 102.009 -166.5907
5462.856580 102.013 -166.8016
5502.442691 102.018 -167.0115
5542.315659 102.024 -167.2207
5582.477563 102.034 -167.4309
5622.930497 102.047 -167.6449
5663.676569 102.066 -167.8666
5704.717904 102.091 -168.1013
5746.056642 102.124 -168.3548
5787.694937 102.165 -168.6338
5829.634960 102.216 -168.9451
5871.878898 102.277 -169.2959
5914.428953 102.346 -169.6930
5957.287343 102.423 -170.1427
6000.456303 102.507 -170.6506
6043.938083 102.595 -171.2215
6087.734950 102.686 -171.8587
6131.849187 102.775 -172.5643
6176.283094 102.860 -173.3392
6221.038987 102.938 -174.1826
6266.119200 103.006 -175.0925
6311.526083 103.063 -176.0656
6357.262002 103.104 -177.0974
6403.329344 103.129 -178.1828
6449.730508 103.136 -179.3158
6496.467914 103.124 179.5096
6543.543998 103.093 178.2994
6590.961215 103.043 177.0594
6638.722037 102.975 175.7944
6686.828954 102.888 174.5089
6735.284473 102.785 173.2063
6784.091120 102.667 171.8892
6833.251441 102.535 170.5597
6882.767998 102.391 169.2195
6932.643372 102.236 167.8701
6982.880164 102.072 166.5131
7033.480992 101.901 165.1498
7084.448495 101.723 163.7812
7135.785329 101.541 162.4075
7187.494171 101.356 161.0277
7239.577717 101.170 159.6389
7292.038681 100.984 158.2359
7344.879799 100.799 156.8106
7398.103826 100.616 155.3521
7451.713536 100.437 153.8457
7505.711724 100.263 152.2731
7560.101205 100.093 150.6116
7614.884815 99.930 148.8345
7670.065409 99.772 146.9103
7725.645865 99.619 144.8038
7781.629080 99.471 142.4763
7838.017972 99.326 139.8868
7894.815481 99.180 136.9930
7952.024569 99.030 133.7531
8009.648217 98.871 130.1260
8067.689429 98.697 126.0722
8126.151233 98.503 121.5519
8185.036674 98.282 116.5237
8244.348824 98.027 110.9398
8304.090774 97.734 104.7407
8364.265639 97.398 97.8455
8424.876556 97.017 90.1394
8485.926684 96.589 81.4599
8547.419207 96.118 71.5874
8609.357330 95.610 60.2607
8671.744282 95.075 47.2600
8734.583316 94.524 32.6035
8797.877707 93.975 16.8124
8861.630756 93.448 0.9564
8925.845785 92.961 -13.7780
8990.526143 92.537 -26.6505
9055.675202 92.191 -37.5109
9121.296357 91.934 -46.5752
9187.393031 91.770 -54.1788
9253.968668 91.692 -60.6468
9321.026740 91.690 -66.2507
9388.570742 91.747 -71.2063
9456.604196 91.847 -75.6821
9525.130648 91.972 -79.8099
9594.153671 92.108 -83.6941
9663.676863 92.242 -87.4169
9733.703850 92.363 -91.0432
9804.238280 92.462 -94.6240
9875.283832 92.532 -98.1967
9946.844210 92.565 -101.7869
10018.923143 92.556 -105.4083
10091.524390 92.500 -109.0635
10164.651736 92.393 -112.7437
10238.308993 92.231 -116.4303
10312.500000 92.010 -120.0958
10387.228626 91.731 -123.7060
10462.498767 91.392 -127.2231
10538.314345 90.994 -130.6082
10614.679315 90.539 -133.8246
10691.597657 90.031 -136.8400
10769.073381 89.472 -139.6282
10847.110526 88.868 -142.1710
10925.713161 88.223 -144.4589
11004.885382 87.541 -146.4924
11084.631318 86.828 -148.2827
11164.955126 86.088 -149.8534
11245.860993 85.326 -151.2401
11327.353138 84.546 -152.4922
11409.435808 83.754 -153.6708
11492.113283 82.952 -154.8484
11575.389873 82.144 -156.1066
11659.269920 81.334 -157.5338
11743.757796 80.525 -159.2245
11828.857906 79.722 -161.2793
11914.574686 78.931 -163.8059
12000.912606 78.161 -166.9225
12087.876166 77.428 -170.7578
12175.469900 76.753 -175.4466
12263.698373 76.167 178.8903
12352.566187 75.706 172.1871
12442.077974 75.410 164.4969
12532.238400 75.307 156.0479
12623.052165 75.409 147.2380
12714.524005 75.701 138.5331
12806.658687 76.150 130.3174
12899.461015 76.711 122.7978
12992.935827 77.343 116.0061
13087.087996 78.008 109.8594
13181.922430 78.679 104.2271
13277.444074 79.335 98.9739
13373.657907 79.961 93.9827
13470.568945 80.548 89.1616
13568.182241 81.086 84.4435
13666.502883 81.573 79.7833
13765.535996 82.002 75.1528
13865.286744 82.371 70.5380
13965.760328 82.678 65.9352
14066.961984 82.921 61.3496
14168.896989 83.096 56.7941
14271.570658 83.204 52.2882
14374.988342 83.243 47.8575
14479.155433 83.212 43.5334
14584.077362 83.112 39.3521
14689.759598 82.943 35.3546
14796.207652 82.708 31.5858
14903.427072 82.408 28.0955
15011.423448 82.049 24.9393
15120.202410 81.633 22.1798
15229.769630 81.168 19.8875
15340.130819 80.662 18.1400
15451.291730 80.125 17.0159
15563.258160 79.572 16.5825
15676.035944 79.024 16.8717
15789.630962 78.504 17.8469
15904.049137 78.039 19.3702
16019.296433 77.650 21.1937
16135.378859 77.354 22.9948
16252.302465 77.152 24.4529
16370.073348 77.031 25.3272
16488.697648 76.968 25.4962
16608.181548 76.935 24.9498
16728.531278 76.907 23.7544
16849.753112 76.861 22.0166
16971.853368 76.783 19.8547
17094.838414 76.664 17.3815
17218.714660 76.501 14.6941
17343.488565 76.296 11.8688
17469.166632 76.055 8.9592
17595.755415 75.786 5.9968
17723.261512 75.498 2.9931
17851.691571 75.205 -0.0575
17981.052287 74.917 -3.1753
18111.350404 74.649 -6.3940
18242.592715 74.411 -9.7590
18374.786062 74.215 -13.3259
18507.937336 74.066 -17.1560
18642.053479 73.967 -21.3090
18777.141484 73.913 -25.8323
18913.208391 73.892 -30.7465
19050.261296 73.891 -36.0271
19188.307342 73.894 -41.5864
19327.353727 73.889 -47.2567
19467.407699 73.868 -52.7838
19608.476560 73.833 -57.8403
19750.567664 73.789 -62.0622
19893.688419 73.750 -65.1042
20037.846286 73.726 -66.6982
