* Measurement data measured by REW V5.31.3
* Source: EXCL: Headset (USB-C to 3.5mm Headphone Jack Adapter), MICROPHONE (Master Volume), 0, volume: 0.250
* Format: 256k Log Swept Sine, 1 sweep at -12.0 dBFS with no timing reference
* Dated: Feb 9, 2025 5:05:54 PM
* REW Settings:
*  C-weighting compensation: Off
*  Target level: 75.0 dB
* Note: ; 
* Measurement: Ouroboros (Golem Mod) R5
* Smoothing: 1/6 octave
* Frequency Step: 96 ppo
* Start Frequency: 20.0 Hz
*
* Freq(Hz) SPL(dB) Phase(degrees)
20.141602 104.269 -109.3532
20.287556 104.261 -109.5353
20.434568 104.248 -109.7808
20.582645 104.230 -110.0844
20.731796 104.204 -110.4410
20.882027 104.168 -110.8456
21.033346 104.123 -111.2940
21.185763 104.067 -111.7829
21.339284 104.000 -112.3097
21.493917 103.923 -112.8715
21.649671 103.837 -113.4659
21.806553 103.742 -114.0896
21.964572 103.640 -114.7387
22.123737 103.533 -115.4090
22.284054 103.421 -116.0954
22.445534 103.307 -116.7929
22.608183 103.192 -117.4965
22.772012 103.078 -118.2022
22.937027 102.966 -118.9065
23.103238 102.859 -119.6074
23.270654 102.757 -120.3045
23.439282 102.662 -120.9983
23.609133 102.576 -121.6906
23.780215 102.500 -122.3836
23.952536 102.434 -123.0800
24.126106 102.378 -123.7819
24.300934 102.334 -124.4907
24.477028 102.300 -125.2068
24.654399 102.277 -125.9296
24.833055 102.262 -126.6571
25.013005 102.255 -127.3867
25.194260 102.255 -128.1153
25.376828 102.260 -128.8394
25.560719 102.269 -129.5557
25.745942 102.280 -130.2613
25.932508 102.292 -130.9536
26.120426 102.302 -131.6303
26.309705 102.309 -132.2893
26.500356 102.312 -132.9287
26.692388 102.309 -133.5463
26.885812 102.299 -134.1402
27.080638 102.282 -134.7082
27.276876 102.258 -135.2489
27.474535 102.227 -135.7614
27.673627 102.190 -136.2459
27.874161 102.150 -136.7039
28.076149 102.109 -137.1385
28.279600 102.070 -137.5539
28.484526 102.036 -137.9552
28.690937 102.010 -138.3479
28.898843 101.996 -138.7372
29.108256 101.996 -139.1274
29.319186 102.012 -139.5213
29.531645 102.044 -139.9207
29.745644 102.091 -140.3259
29.961193 102.152 -140.7366
30.178304 102.224 -141.1523
30.396989 102.302 -141.5728
30.617258 102.383 -141.9990
30.839123 102.462 -142.4327
31.062596 102.534 -142.8763
31.287688 102.592 -143.3333
31.514412 102.634 -143.8066
31.742778 102.654 -144.2986
31.972800 102.650 -144.8102
32.204488 102.619 -145.3404
32.437855 102.561 -145.8862
32.672913 102.475 -146.4424
32.909674 102.362 -147.0020
33.148151 102.224 -147.5572
33.388356 102.065 -148.0993
33.630302 101.889 -148.6205
33.874001 101.699 -149.1137
34.119466 101.500 -149.5738
34.366710 101.295 -149.9977
34.615745 101.090 -150.3842
34.866585 100.885 -150.7340
35.119243 100.686 -151.0494
35.373731 100.492 -151.3335
35.630064 100.305 -151.5902
35.888254 100.128 -151.8235
36.148315 99.960 -152.0380
36.410261 99.804 -152.2385
36.674104 99.660 -152.4296
36.939860 99.532 -152.6158
37.207542 99.420 -152.8009
37.477163 99.329 -152.9872
37.748738 99.259 -153.1753
38.022281 99.212 -153.3636
38.297806 99.191 -153.5489
38.575327 99.196 -153.7266
38.854860 99.226 -153.8922
39.136419 99.282 -154.0418
39.420017 99.362 -154.1734
39.705671 99.464 -154.2868
39.993395 99.586 -154.3837
40.283203 99.727 -154.4673
40.575112 99.883 -154.5418
40.869136 100.052 -154.6116
41.165290 100.233 -154.6814
41.463591 100.424 -154.7553
41.764053 100.624 -154.8364
42.066693 100.830 -154.9265
42.371525 101.040 -155.0260
42.678567 101.253 -155.1332
42.987834 101.466 -155.2455
43.299341 101.676 -155.3597
43.613106 101.881 -155.4732
43.929145 102.078 -155.5849
44.247473 102.265 -155.6959
44.568109 102.441 -155.8089
44.891068 102.602 -155.9279
45.216367 102.748 -156.0569
45.544023 102.878 -156.1988
45.874054 102.991 -156.3550
46.206476 103.086 -156.5249
46.541307 103.164 -156.7061
46.878565 103.224 -156.8949
47.218266 103.268 -157.0869
47.560429 103.296 -157.2778
47.905072 103.309 -157.4642
48.252212 103.308 -157.6437
48.601867 103.294 -157.8154
48.954056 103.269 -157.9798
49.308798 103.234 -158.1380
49.666109 103.190 -158.2917
50.026010 103.141 -158.4418
50.388520 103.087 -158.5886
50.753656 103.030 -158.7314
51.121437 102.972 -158.8688
51.491884 102.915 -158.9990
51.865016 102.859 -159.1208
52.240851 102.808 -159.2333
52.619410 102.760 -159.3368
53.000712 102.718 -159.4322
53.384777 102.681 -159.5209
53.771625 102.648 -159.6045
54.161276 102.620 -159.6844
54.553751 102.595 -159.7611
54.949070 102.572 -159.8347
55.347254 102.549 -159.9049
55.748323 102.527 -159.9711
56.152298 102.502 -160.0330
56.559201 102.477 -160.0904
56.969052 102.450 -160.1434
57.381873 102.421 -160.1924
57.797686 102.392 -160.2377
58.216512 102.362 -160.2799
58.638373 102.332 -160.3198
59.063291 102.302 -160.3583
59.491288 102.273 -160.3963
59.922386 102.243 -160.4344
60.356608 102.214 -160.4738
60.793977 102.185 -160.5154
61.234515 102.157 -160.5605
61.678246 102.130 -160.6104
62.125192 102.104 -160.6662
62.575377 102.080 -160.7286
63.028824 102.059 -160.7978
63.485557 102.041 -160.8739
63.945599 102.027 -160.9568
64.408975 102.018 -161.0466
64.875709 102.014 -161.1434
65.345825 102.015 -161.2479
65.819348 102.022 -161.3612
66.296302 102.034 -161.4853
66.776713 102.052 -161.6228
67.260604 102.076 -161.7769
67.748002 102.104 -161.9503
68.238932 102.137 -162.1454
68.733420 102.173 -162.3637
69.231490 102.213 -162.6058
69.733170 102.255 -162.8716
70.238485 102.299 -163.1604
70.747463 102.345 -163.4712
71.260128 102.393 -163.8030
71.776508 102.441 -164.1548
72.296630 102.490 -164.5258
72.820521 102.540 -164.9152
73.348209 102.590 -165.3221
73.879720 102.639 -165.7455
74.415083 102.687 -166.1846
74.954326 102.735 -166.6383
75.497475 102.781 -167.1059
76.044561 102.825 -167.5866
76.595612 102.867 -168.0799
77.150655 102.906 -168.5853
77.709720 102.942 -169.1024
78.272837 102.974 -169.6310
78.840034 103.002 -170.1704
79.411342 103.025 -170.7203
79.986789 103.043 -171.2800
80.566406 103.055 -171.8488
81.150224 103.061 -172.4259
81.738272 103.063 -173.0107
82.330581 103.059 -173.6021
82.927182 103.051 -174.1993
83.528107 103.040 -174.8016
84.133386 103.029 -175.4084
84.743051 103.019 -176.0194
85.357134 103.013 -176.6344
85.975667 103.014 -177.2532
86.598682 103.026 -177.8757
87.226212 103.051 -178.5017
87.858289 103.093 -179.1306
88.494946 103.155 -179.7618
89.136217 103.238 179.6056
89.782135 103.343 178.9724
90.432733 103.468 178.3395
91.088046 103.613 177.7078
91.748108 103.773 177.0779
92.412952 103.944 176.4506
93.082615 104.121 175.8265
93.757130 104.299 175.2061
94.436533 104.471 174.5894
95.120859 104.633 173.9766
95.810144 104.782 173.3676
96.504423 104.914 172.7622
97.203734 105.027 172.1609
97.908112 105.121 171.5639
98.617595 105.195 170.9717
99.332219 105.250 170.3849
100.052021 105.289 169.8039
100.777039 105.313 169.2290
101.507311 105.324 168.6607
102.242875 105.324 168.0992
102.983769 105.316 167.5449
103.730032 105.300 166.9981
104.481702 105.277 166.4597
105.238820 105.248 165.9302
106.001424 105.212 165.4103
106.769554 105.168 164.9009
107.543250 105.115 164.4024
108.322553 105.050 163.9153
109.107503 104.972 163.4400
109.898141 104.881 162.9767
110.694508 104.775 162.5261
111.496646 104.653 162.0886
112.304596 104.517 161.6647
113.118402 104.367 161.2550
113.938104 104.205 160.8601
114.763747 104.032 160.4803
115.595372 103.851 160.1156
116.433024 103.664 159.7661
117.276746 103.474 159.4319
118.126581 103.281 159.1131
118.982575 103.089 158.8099
119.844772 102.898 158.5222
120.713217 102.708 158.2503
121.587954 102.520 157.9946
122.469031 102.334 157.7553
123.356492 102.148 157.5333
124.250384 101.962 157.3290
125.150753 101.774 157.1432
126.057647 101.583 156.9763
126.971113 101.387 156.8288
127.891198 101.185 156.7017
128.817950 100.977 156.5958
129.751418 100.761 156.5118
130.691651 100.538 156.4506
131.638696 100.308 156.4129
132.592604 100.073 156.3994
133.553425 99.834 156.4107
134.521208 99.594 156.4474
135.496004 99.356 156.5098
136.477864 99.124 156.5983
137.466839 98.900 156.7134
138.462981 98.689 156.8555
139.466340 98.494 157.0247
140.476971 98.317 157.2214
141.494925 98.160 157.4459
142.520256 98.024 157.6982
143.553016 97.907 157.9784
144.593260 97.807 158.2861
145.641043 97.721 158.6211
146.696418 97.646 158.9827
147.759441 97.579 159.3705
148.830166 97.514 159.7836
149.908651 97.450 160.2211
150.994951 97.384 160.6819
152.089123 97.315 161.1649
153.191223 97.243 161.6686
154.301310 97.169 162.1915
155.419441 97.092 162.7318
156.545674 97.016 163.2881
157.680069 96.942 163.8588
158.822683 96.871 164.4421
159.973578 96.806 165.0364
161.132813 96.747 165.6400
162.300447 96.696 166.2510
163.476543 96.653 166.8673
164.661162 96.619 167.4865
165.854364 96.593 168.1064
167.056213 96.576 168.7246
168.266772 96.569 169.3389
169.486102 96.571 169.9470
170.714268 96.583 170.5467
171.951334 96.605 171.1357
173.197364 96.637 171.7121
174.452424 96.677 172.2738
175.716578 96.726 172.8192
176.989893 96.783 173.3466
178.272434 96.846 173.8549
179.564270 96.913 174.3429
180.865467 96.984 174.8097
182.176092 97.056 175.2547
183.496216 97.129 175.6777
184.825905 97.201 176.0783
186.165229 97.272 176.4567
187.514259 97.341 176.8128
188.873065 97.410 177.1469
190.241717 97.477 177.4589
191.620287 97.544 177.7492
193.008847 97.610 178.0180
194.407468 97.677 178.2652
195.816225 97.744 178.4909
197.235190 97.811 178.6951
198.664438 97.878 178.8776
200.104042 97.945 179.0387
201.554078 98.011 179.1788
203.014622 98.074 179.2986
204.485750 98.135 179.3989
205.967538 98.193 179.4809
207.460064 98.247 179.5455
208.963405 98.297 179.5938
210.477640 98.343 179.6265
212.002848 98.384 179.6445
213.539108 98.422 179.6486
215.086500 98.457 179.6395
216.645105 98.488 179.6181
218.215005 98.516 179.5848
219.796281 98.541 179.5401
221.389015 98.562 179.4843
222.993292 98.579 179.4178
224.609193 98.591 179.3409
226.236804 98.598 179.2540
227.876209 98.599 179.1575
229.527494 98.593 179.0518
231.190745 98.581 178.9379
232.866048 98.562 178.8164
234.553491 98.536 178.6885
236.253163 98.505 178.5552
237.965150 98.468 178.4178
239.689544 98.427 178.2772
241.426433 98.383 178.1348
243.175909 98.335 177.9915
244.938062 98.287 177.8484
246.712984 98.238 177.7065
248.500768 98.189 177.5666
250.301507 98.141 177.4294
252.115295 98.095 177.2954
253.942226 98.051 177.1649
255.782396 98.011 177.0383
257.635901 97.975 176.9156
259.502837 97.943 176.7973
261.383301 97.916 176.6836
263.277392 97.895 176.5748
265.185209 97.879 176.4715
267.106850 97.869 176.3742
269.042417 97.865 176.2834
270.992009 97.866 176.1999
272.955729 97.873 176.1240
274.933678 97.884 176.0562
276.925961 97.899 175.9965
278.932681 97.919 175.9446
280.953942 97.941 175.8998
282.989850 97.967 175.8612
285.040511 97.995 175.8273
287.106032 98.028 175.7966
289.186521 98.065 175.7674
291.282086 98.106 175.7381
293.392836 98.154 175.7071
295.518881 98.208 175.6732
297.660333 98.268 175.6353
299.817302 98.334 175.5926
301.989902 98.406 175.5444
304.178245 98.482 175.4903
306.382446 98.559 175.4299
308.602620 98.637 175.3631
310.838882 98.713 175.2897
313.091348 98.786 175.2098
315.360137 98.853 175.1236
317.645367 98.913 175.0315
319.947156 98.965 174.9340
322.265625 99.008 174.8316
324.600895 99.041 174.7252
326.953086 99.063 174.6152
329.322323 99.075 174.5024
331.708729 99.075 174.3874
334.112427 99.064 174.2706
336.533543 99.042 174.1528
338.972204 99.009 174.0342
341.428536 98.966 173.9155
343.902668 98.913 173.7969
346.394729 98.853 173.6788
348.904848 98.787 173.5615
351.433156 98.716 173.4451
353.979786 98.644 173.3300
356.544869 98.571 173.2161
359.128540 98.502 173.1038
361.730934 98.439 172.9930
364.352185 98.385 172.8840
366.992431 98.342 172.7769
369.651810 98.313 172.6717
372.330459 98.300 172.5686
375.028519 98.304 172.4676
377.746130 98.324 172.3688
380.483434 98.361 172.2722
383.240574 98.413 172.1779
386.017693 98.478 172.0858
388.814937 98.554 171.9963
391.632450 98.636 171.9093
394.470380 98.724 171.8251
397.328875 98.814 171.7441
400.208084 98.904 171.6665
403.108157 98.992 171.5929
406.029245 99.078 171.5237
408.971500 99.160 171.4595
411.935076 99.238 171.4009
414.920127 99.312 171.3483
417.926810 99.383 171.3022
420.955280 99.452 171.2632
424.005695 99.519 171.2318
427.078215 99.586 171.2084
430.173000 99.652 171.1936
433.290211 99.719 171.1879
436.430010 99.786 171.1917
439.592562 99.853 171.2054
442.778031 99.918 171.2294
445.986583 99.982 171.2637
449.218386 100.042 171.3083
452.473607 100.097 171.3629
455.752418 100.146 171.4269
459.054987 100.188 171.4997
462.381489 100.221 171.5803
465.732096 100.245 171.6674
469.106983 100.260 171.7599
472.506325 100.266 171.8565
475.930301 100.264 171.9559
479.379088 100.254 172.0569
482.852867 100.238 172.1584
486.351817 100.216 172.2593
489.876123 100.190 172.3585
493.425968 100.160 172.4549
497.001536 100.127 172.5475
500.603014 100.092 172.6350
504.230589 100.055 172.7162
507.884452 100.015 172.7901
511.564792 99.973 172.8556
515.271802 99.930 172.9120
519.005673 99.885 172.9593
522.766602 99.839 172.9976
526.554785 99.793 173.0276
530.370418 99.750 173.0505
534.213700 99.710 173.0672
538.084833 99.676 173.0786
541.984018 99.649 173.0850
545.911457 99.631 173.0861
549.867357 99.622 173.0808
553.851922 99.623 173.0677
557.865362 99.634 173.0450
561.907884 99.651 173.0110
565.979700 99.675 172.9645
570.081022 99.701 172.9051
574.212064 99.728 172.8329
578.373042 99.752 172.7489
582.564171 99.773 172.6546
586.785671 99.788 172.5521
591.037762 99.795 172.4437
595.320665 99.793 172.3318
599.634604 99.783 172.2188
603.979804 99.762 172.1070
608.356491 99.733 171.9984
612.764893 99.694 171.8950
617.205240 99.648 171.7981
621.677763 99.595 171.7092
626.182696 99.537 171.6293
630.720274 99.476 171.5594
635.290733 99.414 171.5002
639.894312 99.354 171.4525
644.531250 99.296 171.4167
649.201789 99.243 171.3931
653.906173 99.196 171.3818
658.644647 99.157 171.3828
663.417457 99.125 171.3957
668.224854 99.100 171.4199
673.067086 99.082 171.4549
677.944408 99.069 171.4997
682.857073 99.059 171.5534
687.805336 99.052 171.6147
692.789457 99.045 171.6825
697.809695 99.038 171.7552
702.866312 99.029 171.8316
707.959571 99.017 171.9102
713.089738 99.002 171.9897
718.257080 98.984 172.0691
723.461867 98.963 172.1475
728.704370 98.938 172.2241
733.984862 98.910 172.2984
739.303619 98.881 172.3701
744.660918 98.849 172.4389
750.057038 98.816 172.5046
755.492260 98.783 172.5668
760.966869 98.749 172.6253
766.481148 98.714 172.6801
772.035387 98.679 172.7308
777.629873 98.641 172.7776
783.264900 98.602 172.8204
788.940760 98.559 172.8596
794.657750 98.511 172.8953
800.416168 98.459 172.9279
806.216313 98.400 172.9579
812.058489 98.335 172.9857
817.943000 98.263 173.0121
823.870152 98.185 173.0379
829.840255 98.100 173.0639
835.853619 98.009 173.0912
841.910559 97.914 173.1208
848.011390 97.815 173.1534
854.156430 97.714 173.1897
860.346000 97.611 173.2297
866.580422 97.508 173.2732
872.860020 97.407 173.3192
879.185124 97.308 173.3661
885.556062 97.213 173.4122
891.973166 97.124 173.4547
898.436771 97.041 173.4906
904.947215 96.965 173.5166
911.504835 96.897 173.5294
918.109975 96.838 173.5261
924.762978 96.788 173.5046
931.464192 96.746 173.4641
938.213966 96.711 173.4061
945.012651 96.683 173.3341
951.860602 96.660 173.2542
958.758176 96.641 173.1741
965.705733 96.624 173.1031
972.703635 96.610 173.0504
979.752246 96.598 173.0246
986.851935 96.587 173.0329
994.003071 96.579 173.0809
1001.206027 96.574 173.1728
1008.461179 96.573 173.3116
1015.768904 96.578 173.4995
1023.129584 96.590 173.7388
1030.543603 96.612 174.0313
1038.011347 96.645 174.3786
1045.533205 96.693 174.7817
1053.109569 96.757 175.2399
1060.740836 96.840 175.7498
1068.427401 96.944 176.3038
1076.169666 97.070 176.8889
1083.968035 97.218 177.4851
1091.822915 97.387 178.0663
1099.734713 97.574 178.6003
1107.703844 97.774 179.0527
1115.730723 97.981 179.3911
1123.815768 98.188 179.5900
1131.959400 98.389 179.6367
1140.162045 98.576 179.5324
1148.424129 98.744 179.2931
1156.746083 98.891 178.9452
1165.128342 99.014 178.5210
1173.571343 99.115 178.0536
1182.075524 99.196 177.5731
1190.641331 99.259 177.1045
1199.269209 99.309 176.6663
1207.959608 99.348 176.2714
1216.712981 99.380 175.9272
1225.529785 99.407 175.6371
1234.410479 99.431 175.4013
1243.355526 99.454 175.2177
1252.365393 99.476 175.0826
1261.440549 99.497 174.9918
1270.581467 99.518 174.9408
1279.788624 99.537 174.9251
1289.062500 99.555 174.9409
1298.403578 99.572 174.9846
1307.812346 99.588 175.0535
1317.289293 99.602 175.1453
1326.834914 99.616 175.2584
1336.449707 99.629 175.3909
1346.134173 99.642 175.5415
1355.888816 99.655 175.7082
1365.714145 99.669 175.8891
1375.610673 99.684 176.0818
1385.578915 99.700 176.2838
1395.619391 99.717 176.4922
1405.732624 99.735 176.7042
1415.919142 99.756 176.9170
1426.179476 99.778 177.1277
1436.514160 99.803 177.3337
1446.923734 99.831 177.5323
1457.408740 99.862 177.7210
1467.969724 99.898 177.8976
1478.607238 99.938 178.0601
1489.321836 99.984 178.2067
1500.114076 100.034 178.3360
1510.984521 100.090 178.4471
1521.933737 100.150 178.5393
1532.962297 100.213 178.6122
1544.070773 100.281 178.6658
1555.259747 100.350 178.7002
1566.529800 100.422 178.7160
1577.881521 100.494 178.7137
1589.315501 100.567 178.6942
1600.832336 100.639 178.6583
1612.432627 100.710 178.6068
1624.116978 100.780 178.5408
1635.886000 100.848 178.4611
1647.740304 100.915 178.3683
1659.680509 100.980 178.2632
1671.707238 101.044 178.1464
1683.821118 101.106 178.0183
1696.022780 101.168 177.8796
1708.312860 101.228 177.7306
1720.692000 101.287 177.5718
1733.160843 101.345 177.4037
1745.720041 101.403 177.2270
1758.370248 101.459 177.0423
1771.112124 101.514 176.8504
1783.946332 101.566 176.6521
1796.873543 101.617 176.4484
1809.894429 101.664 176.2402
1823.009670 101.707 176.0284
1836.219950 101.747 175.8137
1849.525956 101.782 175.5967
1862.928384 101.814 175.3782
1876.427931 101.841 175.1586
1890.025301 101.865 174.9383
1903.721204 101.885 174.7177
1917.516352 101.902 174.4972
1931.411466 101.916 174.2772
1945.407270 101.926 174.0581
1959.504493 101.933 173.8405
1973.703870 101.934 173.6248
1988.006142 101.931 173.4118
2002.412054 101.921 173.2023
2016.922357 101.903 172.9969
2031.537808 101.878 172.7966
2046.259169 101.844 172.6023
2061.087206 101.800 172.4148
2076.022694 101.746 172.2349
2091.066410 101.682 172.0635
2106.219139 101.608 171.9014
2121.481671 101.526 171.7495
2136.854802 101.436 171.6087
2152.339333 101.339 171.4798
2167.936071 101.236 171.3636
2183.645829 101.130 171.2607
2199.469427 101.021 171.1712
2215.407689 100.911 171.0948
2231.461446 100.802 171.0312
2247.631536 100.695 170.9792
2263.918800 100.590 170.9380
2280.324089 100.488 170.9067
2296.848258 100.389 170.8843
2313.492167 100.293 170.8705
2330.256685 100.200 170.8652
2347.142685 100.110 170.8688
2364.151049 100.021 170.8821
2381.282662 99.934 170.9062
2398.538418 99.848 170.9426
2415.919216 99.762 170.9927
2433.425962 99.678 171.0583
2451.059570 99.595 171.1410
2468.820958 99.512 171.2422
2486.711052 99.432 171.3631
2504.730786 99.354 171.5045
2522.881098 99.280 171.6668
2541.162934 99.210 171.8500
2559.577248 99.146 172.0535
2578.125000 99.089 172.2767
2596.807157 99.041 172.5182
2615.624692 99.002 172.7767
2634.578586 98.975 173.0502
2653.669829 98.961 173.3366
2672.899414 98.959 173.6336
2692.268345 98.972 173.9384
2711.777632 98.997 174.2479
2731.428290 99.036 174.5589
2751.221345 99.087 174.8681
2771.157829 99.149 175.1722
2791.238781 99.219 175.4686
2811.465248 99.295 175.7547
2831.838284 99.376 176.0292
2852.358952 99.457 176.2910
2873.028321 99.538 176.5399
2893.847468 99.616 176.7759
2914.817480 99.689 176.9995
2935.939449 99.756 177.2111
2957.214476 99.814 177.4111
2978.643672 99.863 177.6004
3000.228152 99.902 177.7795
3021.969041 99.930 177.9497
3043.867475 99.947 178.1122
3065.924593 99.953 178.2687
3088.141547 99.948 178.4213
3110.519493 99.933 178.5725
3133.059600 99.908 178.7250
3155.763041 99.873 178.8815
3178.631001 99.830 179.0451
3201.664672 99.780 179.2185
3224.865254 99.723 179.4048
3248.233957 99.659 179.6069
3271.771999 99.591 179.8281
3295.480608 99.518 -179.9284
3319.361019 99.441 -179.6586
3343.414477 99.360 -179.3586
3367.642236 99.277 -179.0241
3392.045560 99.192 -178.6508
3416.625721 99.106 -178.2343
3441.383999 99.020 -177.7708
3466.321686 98.934 -177.2565
3491.440082 98.852 -176.6885
3516.740496 98.773 -176.0645
3542.224247 98.701 -175.3830
3567.892664 98.636 -174.6439
3593.747085 98.581 -173.8478
3619.788858 98.537 -172.9967
3646.019340 98.507 -172.0937
3672.439900 98.491 -171.1428
3699.051913 98.492 -170.1495
3725.856768 98.510 -169.1202
3752.855862 98.546 -168.0627
3780.050603 98.601 -166.9862
3807.442408 98.676 -165.9012
3835.032705 98.770 -164.8196
3862.822933 98.882 -163.7544
3890.814540 99.013 -162.7198
3919.008986 99.160 -161.7303
3947.407741 99.322 -160.8000
3976.012284 99.496 -159.9417
4004.824108 99.681 -159.1661
4033.844715 99.873 -158.4812
4063.075616 100.070 -157.8923
4092.518337 100.270 -157.4021
4122.174412 100.471 -157.0106
4152.045387 100.670 -156.7160
4182.132820 100.865 -156.5146
4212.438278 101.056 -156.4018
4242.963342 101.241 -156.3721
4273.709604 101.418 -156.4200
4304.678665 101.588 -156.5397
4335.872141 101.748 -156.7261
4367.291658 101.897 -156.9738
4398.938854 102.036 -157.2771
4430.815378 102.162 -157.6300
4462.922893 102.274 -158.0253
4495.263072 102.372 -158.4548
4527.837601 102.455 -158.9091
4560.648179 102.521 -159.3782
4593.696515 102.572 -159.8514
4626.984334 102.606 -160.3184
4660.513370 102.626 -160.7694
4694.285371 102.632 -161.1963
4728.302098 102.626 -161.5923
4762.565324 102.610 -161.9533
4797.076835 102.586 -162.2774
4831.838432 102.557 -162.5654
4866.851925 102.524 -162.8204
4902.119140 102.492 -163.0478
4937.641916 102.460 -163.2543
4973.422105 102.431 -163.4475
5009.461572 102.406 -163.6352
5045.762195 102.386 -163.8242
5082.325868 102.370 -164.0204
5119.154496 102.358 -164.2277
5156.250000 102.349 -164.4484
5193.614313 102.343 -164.6826
5231.249383 102.338 -164.9286
5269.157173 102.334 -165.1837
5307.339658 102.331 -165.4438
5345.798829 102.327 -165.7045
5384.536691 102.322 -165.9615
5423.555263 102.317 -166.2106
5462.856580 102.312 -166.4486
5502.442691 102.307 -166.6734
5542.315659 102.304 -166.8843
5582.477563 102.304 -167.0821
5622.930497 102.308 -167.2693
5663.676569 102.318 -167.4502
5704.717904 102.336 -167.6303
5746.056642 102.363 -167.8164
5787.694937 102.401 -168.0164
5829.634960 102.449 -168.2388
5871.878898 102.509 -168.4924
5914.428953 102.580 -168.7864
5957.287343 102.662 -169.1293
6000.456303 102.753 -169.5294
6043.938083 102.852 -169.9941
6087.734950 102.955 -170.5296
6131.849187 103.061 -171.1409
6176.283094 103.165 -171.8314
6221.038987 103.265 -172.6033
6266.119200 103.358 -173.4570
6311.526083 103.440 -174.3916
6357.262002 103.509 -175.4048
6403.329344 103.563 -176.4930
6449.730508 103.598 -177.6512
6496.467914 103.615 -178.8739
6543.543998 103.612 179.8456
6590.961215 103.588 178.5143
6638.722037 103.543 177.1399
6686.828954 103.478 175.7297
6735.284473 103.393 174.2914
6784.091120 103.290 172.8323
6833.251441 103.169 171.3594
6882.767998 103.033 169.8794
6932.643372 102.882 168.3985
6982.880164 102.719 166.9226
7033.480992 102.546 165.4568
7084.448495 102.364 164.0049
7135.785329 102.177 162.5697
7187.494171 101.985 161.1516
7239.577717 101.790 159.7489
7292.038681 101.596 158.3570
7344.879799 101.403 156.9684
7398.103826 101.213 155.5722
7451.713536 101.027 154.1539
7505.711724 100.847 152.6951
7560.101205 100.673 151.1729
7614.884815 100.506 149.5603
7670.065409 100.346 147.8257
7725.645865 100.193 145.9333
7781.629080 100.046 143.8443
7838.017972 99.903 141.5177
7894.815481 99.761 138.9124
7952.024569 99.615 135.9887
8009.648217 99.461 132.7104
8067.689429 99.292 129.0453
8126.151233 99.101 124.9656
8185.036674 98.881 120.4470
8244.348824 98.623 115.4659
8304.090774 98.321 109.9951
8364.265639 97.969 103.9962
8424.876556 97.562 97.4076
8485.926684 97.100 90.1262
8547.419207 96.584 81.9834
8609.357330 96.018 72.7160
8671.744282 95.412 61.9477
8734.583316 94.778 49.2238
8797.877707 94.132 34.2109
8861.630756 93.495 17.1633
8925.845785 92.892 -0.6430
8990.526143 92.347 -17.3478
9055.675202 91.887 -31.6688
9121.296357 91.529 -43.3657
9187.393031 91.286 -52.8137
9253.968668 91.157 -60.5322
9321.026740 91.131 -66.9778
9388.570742 91.190 -72.5027
9456.604196 91.313 -77.3694
9525.130648 91.477 -81.7728
9594.153671 91.664 -85.8600
9663.676863 91.856 -89.7432
9733.703850 92.040 -93.5081
9804.238280 92.203 -97.2203
9875.283832 92.337 -100.9277
9946.844210 92.434 -104.6627
10018.923143 92.487 -108.4430
10091.524390 92.489 -112.2726
10164.651736 92.436 -116.1426
10238.308993 92.323 -120.0326
10312.500000 92.149 -123.9127
10387.228626 91.911 -127.7462
10462.498767 91.610 -131.4934
10538.314345 91.247 -135.1149
10614.679315 90.825 -138.5749
10691.597657 90.348 -141.8435
10769.073381 89.821 -144.8996
10847.110526 89.248 -147.7310
10925.713161 88.637 -150.3364
11004.885382 87.991 -152.7262
11084.631318 87.318 -154.9229
11164.955126 86.622 -156.9618
11245.860993 85.910 -158.8906
11327.353138 85.185 -160.7684
11409.435808 84.453 -162.6636
11492.113283 83.716 -164.6506
11575.389873 82.978 -166.8066
11659.269920 82.241 -169.2081
11743.757796 81.505 -171.9280
11828.857906 80.772 -175.0340
11914.574686 80.044 -178.5879
12000.912606 79.323 177.3559
12087.876166 78.616 172.7526
12175.469900 77.936 167.5739
12263.698373 77.302 161.8198
12352.566187 76.744 155.5385
12442.077974 76.298 148.8447
12532.238400 76.003 141.9245
12623.052165 75.892 135.0095
12714.524005 75.978 128.3246
12806.658687 76.248 122.0319
12899.461015 76.672 116.2012
12992.935827 77.207 110.8181
13087.087996 77.809 105.8121
13181.922430 78.444 101.0900
13277.444074 79.081 96.5593
13373.657907 79.701 92.1415
13470.568945 80.288 87.7768
13568.182241 80.833 83.4247
13666.502883 81.327 79.0613
13765.535996 81.765 74.6766
13865.286744 82.143 70.2717
13965.760328 82.458 65.8564
14066.961984 82.708 61.4478
14168.896989 82.891 57.0690
14271.570658 83.007 52.7483
14374.988342 83.054 48.5187
14479.155433 83.033 44.4171
14584.077362 82.946 40.4839
14689.759598 82.794 36.7624
14796.207652 82.581 33.2983
14903.427072 82.311 30.1400
15011.423448 81.990 27.3367
15120.202410 81.626 24.9373
15229.769630 81.227 22.9858
15340.130819 80.808 21.5132
15451.291730 80.384 20.5264
15563.258160 79.974 19.9938
15676.035944 79.598 19.8341
15789.630962 79.275 19.9131
15904.049137 79.019 20.0566
16019.296433 78.833 20.0784
16135.378859 78.711 19.8151
16252.302465 78.638 19.1523
16370.073348 78.594 18.0350
16488.697648 78.557 16.4619
16608.181548 78.508 14.4724
16728.531278 78.429 12.1306
16849.753112 78.310 9.5129
16971.853368 78.143 6.6984
17094.838414 77.927 3.7618
17218.714660 77.663 0.7670
17343.488565 77.355 -2.2372
17469.166632 77.010 -5.2202
17595.755415 76.639 -8.1707
17723.261512 76.252 -11.0949
17851.691571 75.862 -14.0151
17981.052287 75.480 -16.9664
18111.350404 75.120 -19.9944
18242.592715 74.793 -23.1531
18374.786062 74.507 -26.5016
18507.937336 74.269 -30.0988
18642.053479 74.080 -33.9967
18777.141484 73.933 -38.2304
18913.208391 73.821 -42.8059
19050.261296 73.730 -47.6864
19188.307342 73.647 -52.7780
19327.353727 73.562 -57.9194
19467.407699 73.470 -62.8807
19608.476560 73.374 -67.3779
19750.567664 73.282 -71.1044
19893.688419 73.210 -73.7749
20037.846286 73.170 -75.1697
