* Measurement data measured by REW V5.31.3
* Source: EXCL: Headset (USB-C to 3.5mm Headphone Jack Adapter), MICROPHONE (Master Volume), 0, volume: 0.250
* Format: 256k Log Swept Sine, 1 sweep at -12.0 dBFS with no timing reference
* Dated: Feb 9, 2025 5:06:33 PM
* REW Settings:
*  C-weighting compensation: Off
*  Target level: 75.0 dB
* Note: ; 
* Measurement: Ouroboros (Golem Mod) R7
* Smoothing: 1/6 octave
* Frequency Step: 96 ppo
* Start Frequency: 20.0 Hz
*
* Freq(Hz) SPL(dB) Phase(degrees)
20.141602 104.352 -113.2571
20.287556 104.370 -113.3929
20.434568 104.392 -113.5824
20.582645 104.414 -113.8297
20.731796 104.434 -114.1382
20.882027 104.447 -114.5101
21.033346 104.450 -114.9454
21.185763 104.440 -115.4415
21.339284 104.415 -115.9936
21.493917 104.373 -116.5946
21.649671 104.314 -117.2361
21.806553 104.238 -117.9087
21.964572 104.146 -118.6031
22.123737 104.039 -119.3107
22.284054 103.919 -120.0242
22.445534 103.788 -120.7378
22.608183 103.651 -121.4474
22.772012 103.510 -122.1507
22.937027 103.368 -122.8466
23.103238 103.228 -123.5351
23.270654 103.094 -124.2165
23.439282 102.969 -124.8912
23.609133 102.855 -125.5589
23.780215 102.755 -126.2192
23.952536 102.670 -126.8707
24.126106 102.601 -127.5118
24.300934 102.550 -128.1412
24.477028 102.517 -128.7576
24.654399 102.499 -129.3607
24.833055 102.495 -129.9511
25.013005 102.503 -130.5302
25.194260 102.520 -131.0998
25.376828 102.542 -131.6619
25.560719 102.566 -132.2180
25.745942 102.588 -132.7688
25.932508 102.605 -133.3136
26.120426 102.615 -133.8510
26.309705 102.617 -134.3785
26.500356 102.609 -134.8935
26.692388 102.592 -135.3942
26.885812 102.567 -135.8797
27.080638 102.535 -136.3515
27.276876 102.499 -136.8129
27.474535 102.460 -137.2695
27.673627 102.420 -137.7280
27.874161 102.383 -138.1951
28.076149 102.349 -138.6765
28.279600 102.319 -139.1753
28.484526 102.296 -139.6911
28.690937 102.281 -140.2199
28.898843 102.274 -140.7542
29.108256 102.277 -141.2839
29.319186 102.291 -141.7981
29.531645 102.317 -142.2865
29.745644 102.357 -142.7410
29.961193 102.410 -143.1572
30.178304 102.476 -143.5352
30.396989 102.553 -143.8795
30.617258 102.637 -144.1985
30.839123 102.725 -144.5031
31.062596 102.810 -144.8048
31.287688 102.888 -145.1141
31.514412 102.952 -145.4385
31.742778 102.998 -145.7821
31.972800 103.019 -146.1447
32.204488 103.013 -146.5228
32.437855 102.977 -146.9103
32.672913 102.908 -147.2994
32.909674 102.809 -147.6826
33.148151 102.678 -148.0530
33.388356 102.520 -148.4057
33.630302 102.336 -148.7376
33.874001 102.132 -149.0475
34.119466 101.910 -149.3363
34.366710 101.676 -149.6059
34.615745 101.436 -149.8596
34.866585 101.193 -150.1011
35.119243 100.954 -150.3349
35.373731 100.722 -150.5658
35.630064 100.503 -150.7984
35.888254 100.299 -151.0371
36.148315 100.115 -151.2850
36.410261 99.952 -151.5438
36.674104 99.811 -151.8130
36.939860 99.695 -152.0900
37.207542 99.603 -152.3699
37.477163 99.535 -152.6469
37.748738 99.491 -152.9146
38.022281 99.472 -153.1669
38.297806 99.476 -153.3988
38.575327 99.504 -153.6066
38.854860 99.554 -153.7878
39.136419 99.625 -153.9408
39.420017 99.716 -154.0651
39.705671 99.826 -154.1608
39.993395 99.953 -154.2291
40.283203 100.096 -154.2727
40.575112 100.255 -154.2960
40.869136 100.427 -154.3048
41.165290 100.612 -154.3067
41.463591 100.807 -154.3093
41.764053 101.011 -154.3203
42.066693 101.222 -154.3457
42.371525 101.438 -154.3901
42.678567 101.655 -154.4561
42.987834 101.874 -154.5446
43.299341 102.091 -154.6552
43.613106 102.304 -154.7869
43.929145 102.512 -154.9380
44.247473 102.713 -155.1064
44.568109 102.903 -155.2897
44.891068 103.082 -155.4848
45.216367 103.246 -155.6878
45.544023 103.394 -155.8948
45.874054 103.523 -156.1016
46.206476 103.635 -156.3047
46.541307 103.726 -156.5022
46.878565 103.798 -156.6936
47.218266 103.851 -156.8805
47.560429 103.887 -157.0657
47.905072 103.905 -157.2524
48.252212 103.908 -157.4433
48.601867 103.896 -157.6393
48.954056 103.873 -157.8393
49.308798 103.839 -158.0404
49.666109 103.797 -158.2383
50.026010 103.748 -158.4288
50.388520 103.696 -158.6083
50.753656 103.642 -158.7744
51.121437 103.588 -158.9265
51.491884 103.535 -159.0653
51.865016 103.485 -159.1927
52.240851 103.438 -159.3114
52.619410 103.395 -159.4239
53.000712 103.356 -159.5323
53.384777 103.320 -159.6379
53.771625 103.288 -159.7411
54.161276 103.258 -159.8416
54.553751 103.230 -159.9383
54.949070 103.203 -160.0303
55.347254 103.177 -160.1167
55.748323 103.150 -160.1972
56.152298 103.124 -160.2717
56.559201 103.096 -160.3410
56.969052 103.068 -160.4061
57.381873 103.040 -160.4687
57.797686 103.010 -160.5302
58.216512 102.980 -160.5922
58.638373 102.949 -160.6558
59.063291 102.918 -160.7214
59.491288 102.887 -160.7887
59.922386 102.856 -160.8569
60.356608 102.826 -160.9248
60.793977 102.797 -160.9911
61.234515 102.770 -161.0550
61.678246 102.747 -161.1167
62.125192 102.726 -161.1775
62.575377 102.708 -161.2398
63.028824 102.694 -161.3070
63.485557 102.683 -161.3831
63.945599 102.677 -161.4721
64.408975 102.675 -161.5774
64.875709 102.677 -161.7012
65.345825 102.683 -161.8445
65.819348 102.695 -162.0070
66.296302 102.711 -162.1879
66.776713 102.732 -162.3863
67.260604 102.758 -162.6015
67.748002 102.788 -162.8335
68.238932 102.821 -163.0826
68.733420 102.858 -163.3496
69.231490 102.898 -163.6348
69.733170 102.940 -163.9384
70.238485 102.983 -164.2607
70.747463 103.028 -164.6012
71.260128 103.075 -164.9596
71.776508 103.122 -165.3353
72.296630 103.170 -165.7278
72.820521 103.219 -166.1367
73.348209 103.268 -166.5614
73.879720 103.317 -167.0015
74.415083 103.366 -167.4564
74.954326 103.415 -167.9253
75.497475 103.463 -168.4077
76.044561 103.509 -168.9027
76.595612 103.554 -169.4097
77.150655 103.595 -169.9280
77.709720 103.633 -170.4572
78.272837 103.666 -170.9972
78.840034 103.694 -171.5479
79.411342 103.718 -172.1093
79.986789 103.735 -172.6813
80.566406 103.746 -173.2642
81.150224 103.752 -173.8578
81.738272 103.752 -174.4622
82.330581 103.746 -175.0774
82.927182 103.737 -175.7030
83.528107 103.726 -176.3384
84.133386 103.713 -176.9826
84.743051 103.702 -177.6342
85.357134 103.695 -178.2918
85.975667 103.695 -178.9537
86.598682 103.705 -179.6184
87.226212 103.729 179.7152
87.858289 103.769 179.0482
88.494946 103.829 178.3813
89.136217 103.909 177.7151
89.782135 104.011 177.0496
90.432733 104.133 176.3852
91.088046 104.274 175.7219
91.748108 104.430 175.0601
92.412952 104.597 174.4002
93.082615 104.769 173.7426
93.757130 104.942 173.0880
94.436533 105.109 172.4370
95.120859 105.267 171.7902
95.810144 105.411 171.1479
96.504423 105.538 170.5107
97.203734 105.647 169.8792
97.908112 105.736 169.2538
98.617595 105.805 168.6354
99.332219 105.856 168.0245
100.052021 105.890 167.4218
100.777039 105.909 166.8279
101.507311 105.916 166.2430
102.242875 105.911 165.6674
102.983769 105.899 165.1011
103.730032 105.879 164.5439
104.481702 105.852 163.9960
105.238820 105.819 163.4575
106.001424 105.779 162.9286
106.769554 105.731 162.4099
107.543250 105.674 161.9020
108.322553 105.606 161.4057
109.107503 105.526 160.9218
109.898141 105.431 160.4510
110.694508 105.322 159.9940
111.496646 105.197 159.5513
112.304596 105.058 159.1232
113.118402 104.905 158.7099
113.938104 104.739 158.3115
114.763747 104.563 157.9277
115.595372 104.378 157.5588
116.433024 104.187 157.2046
117.276746 103.993 156.8650
118.126581 103.796 156.5401
118.982575 103.599 156.2299
119.844772 103.403 155.9350
120.713217 103.208 155.6557
121.587954 103.015 155.3929
122.469031 102.824 155.1476
123.356492 102.633 154.9206
124.250384 102.441 154.7129
125.150753 102.248 154.5249
126.057647 102.051 154.3572
126.971113 101.850 154.2104
127.891198 101.643 154.0847
128.817950 101.429 153.9805
129.751418 101.209 153.8982
130.691651 100.982 153.8382
131.638696 100.748 153.8010
132.592604 100.510 153.7872
133.553425 100.268 153.7974
134.521208 100.026 153.8320
135.496004 99.786 153.8917
136.477864 99.551 153.9767
137.466839 99.326 154.0873
138.462981 99.113 154.2237
139.466340 98.916 154.3857
140.476971 98.737 154.5735
141.494925 98.577 154.7869
142.520256 98.437 155.0259
143.553016 98.316 155.2907
144.593260 98.211 155.5813
145.641043 98.120 155.8979
146.696418 98.040 156.2409
147.759441 97.966 156.6103
148.830166 97.896 157.0060
149.908651 97.825 157.4279
150.994951 97.754 157.8752
152.089123 97.679 158.3472
153.191223 97.601 158.8425
154.301310 97.521 159.3598
155.419441 97.439 159.8977
156.545674 97.358 160.4543
157.680069 97.279 161.0278
158.822683 97.204 161.6160
159.973578 97.135 162.2166
161.132813 97.072 162.8274
162.300447 97.017 163.4462
163.476543 96.970 164.0707
164.661162 96.933 164.6987
165.854364 96.904 165.3277
167.056213 96.885 165.9554
168.266772 96.875 166.5796
169.486102 96.875 167.1981
170.714268 96.884 167.8089
171.951334 96.903 168.4102
173.197364 96.931 169.0000
174.452424 96.968 169.5763
175.716578 97.014 170.1371
176.989893 97.068 170.6803
178.272434 97.127 171.2041
179.564270 97.192 171.7069
180.865467 97.260 172.1873
182.176092 97.330 172.6445
183.496216 97.400 173.0779
184.825905 97.471 173.4873
186.165229 97.540 173.8727
187.514259 97.608 174.2343
188.873065 97.675 174.5724
190.241717 97.742 174.8874
191.620287 97.807 175.1799
193.008847 97.873 175.4503
194.407468 97.938 175.6993
195.816225 98.004 175.9273
197.235190 98.069 176.1349
198.664438 98.135 176.3225
200.104042 98.199 176.4906
201.554078 98.262 176.6397
203.014622 98.322 176.7703
204.485750 98.379 176.8826
205.967538 98.433 176.9772
207.460064 98.482 177.0546
208.963405 98.528 177.1151
210.477640 98.569 177.1592
212.002848 98.606 177.1877
213.539108 98.640 177.2012
215.086500 98.670 177.2003
216.645105 98.697 177.1857
218.215005 98.721 177.1581
219.796281 98.742 177.1182
221.389015 98.759 177.0670
222.993292 98.773 177.0052
224.609193 98.782 176.9335
226.236804 98.785 176.8529
227.876209 98.783 176.7639
229.527494 98.774 176.6672
231.190745 98.758 176.5634
232.866048 98.736 176.4532
234.553491 98.706 176.3373
236.253163 98.671 176.2165
237.965150 98.630 176.0918
239.689544 98.584 175.9641
241.426433 98.535 175.8345
243.175909 98.483 175.7040
244.938062 98.430 175.5738
246.712984 98.376 175.4448
248.500768 98.323 175.3181
250.301507 98.271 175.1946
252.115295 98.221 175.0755
253.942226 98.174 174.9617
255.782396 98.130 174.8540
257.635901 98.090 174.7532
259.502837 98.055 174.6599
261.383301 98.024 174.5743
263.277392 98.000 174.4971
265.185209 97.981 174.4281
267.106850 97.968 174.3676
269.042417 97.960 174.3154
270.992009 97.959 174.2712
272.955729 97.963 174.2350
274.933678 97.973 174.2060
276.925961 97.986 174.1840
278.932681 98.004 174.1680
280.953942 98.026 174.1574
282.989850 98.051 174.1510
285.040511 98.081 174.1476
287.106032 98.114 174.1459
289.186521 98.152 174.1445
291.282086 98.196 174.1418
293.392836 98.246 174.1366
295.518881 98.302 174.1273
297.660333 98.366 174.1128
299.817302 98.435 174.0919
301.989902 98.509 174.0636
304.178245 98.588 174.0269
306.382446 98.668 173.9810
308.602620 98.748 173.9256
310.838882 98.826 173.8603
313.091348 98.900 173.7853
315.360137 98.969 173.7009
317.645367 99.030 173.6079
319.947156 99.083 173.5070
322.265625 99.127 173.3994
324.600895 99.161 173.2858
326.953086 99.184 173.1675
329.322323 99.196 173.0453
331.708729 99.197 172.9202
334.112427 99.186 172.7932
336.533543 99.164 172.6650
338.972204 99.131 172.5367
341.428536 99.087 172.4089
343.902668 99.034 172.2824
346.394729 98.973 172.1580
348.904848 98.905 172.0360
351.433156 98.832 171.9171
353.979786 98.757 171.8016
356.544869 98.681 171.6899
359.128540 98.609 171.5822
361.730934 98.541 171.4785
364.352185 98.483 171.3788
366.992431 98.436 171.2830
369.651810 98.403 171.1909
372.330459 98.385 171.1024
375.028519 98.385 171.0173
377.746130 98.402 170.9354
380.483434 98.436 170.8567
383.240574 98.486 170.7809
386.017693 98.550 170.7080
388.814937 98.624 170.6379
391.632450 98.707 170.5706
394.470380 98.795 170.5062
397.328875 98.887 170.4447
400.208084 98.978 170.3864
403.108157 99.069 170.3315
406.029245 99.157 170.2801
408.971500 99.242 170.2323
411.935076 99.323 170.1883
414.920127 99.401 170.1482
417.926810 99.475 170.1121
420.955280 99.547 170.0800
424.005695 99.618 170.0522
427.078215 99.687 170.0291
430.173000 99.757 170.0108
433.290211 99.826 169.9978
436.430010 99.895 169.9905
439.592562 99.964 169.9894
442.778031 100.032 169.9946
445.986583 100.097 170.0063
449.218386 100.158 170.0247
452.473607 100.215 170.0497
455.752418 100.264 170.0814
459.054987 100.305 170.1197
462.381489 100.337 170.1644
465.732096 100.359 170.2155
469.106983 100.372 170.2725
472.506325 100.375 170.3350
475.930301 100.369 170.4022
479.379088 100.354 170.4729
482.852867 100.333 170.5459
486.351817 100.306 170.6198
489.876123 100.274 170.6929
493.425968 100.238 170.7641
497.001536 100.198 170.8322
500.603014 100.156 170.8966
504.230589 100.112 170.9570
507.884452 100.064 171.0139
511.564792 100.015 171.0682
515.271802 99.962 171.1210
519.005673 99.908 171.1740
522.766602 99.851 171.2287
526.554785 99.795 171.2870
530.370418 99.740 171.3503
534.213700 99.688 171.4198
538.084833 99.643 171.4956
541.984018 99.605 171.5772
545.911457 99.578 171.6628
549.867357 99.561 171.7496
553.851922 99.556 171.8342
557.865362 99.561 171.9127
561.907884 99.576 171.9814
565.979700 99.599 172.0370
570.081022 99.627 172.0770
574.212064 99.658 172.0995
578.373042 99.688 172.1040
582.564171 99.717 172.0903
586.785671 99.741 172.0588
591.037762 99.759 172.0107
595.320665 99.769 171.9474
599.634604 99.771 171.8705
603.979804 99.765 171.7819
608.356491 99.750 171.6832
612.764893 99.726 171.5766
617.205240 99.694 171.4637
621.677763 99.656 171.3465
626.182696 99.612 171.2266
630.720274 99.565 171.1056
635.290733 99.516 170.9850
639.894312 99.466 170.8661
644.531250 99.419 170.7500
649.201789 99.375 170.6377
653.906173 99.336 170.5299
658.644647 99.302 170.4274
663.417457 99.275 170.3306
668.224854 99.252 170.2405
673.067086 99.233 170.1575
677.944408 99.218 170.0826
682.857073 99.204 170.0165
687.805336 99.190 169.9601
692.789457 99.175 169.9144
697.809695 99.157 169.8801
702.866312 99.135 169.8583
707.959571 99.109 169.8498
713.089738 99.077 169.8557
718.257080 99.042 169.8766
723.461867 99.001 169.9132
728.704370 98.956 169.9659
733.984862 98.909 170.0345
739.303619 98.858 170.1189
744.660918 98.807 170.2181
750.057038 98.755 170.3307
755.492260 98.703 170.4552
760.966869 98.653 170.5894
766.481148 98.603 170.7309
772.035387 98.555 170.8770
777.629873 98.507 171.0251
783.264900 98.459 171.1724
788.940760 98.410 171.3165
794.657750 98.359 171.4552
800.416168 98.305 171.5868
806.216313 98.247 171.7103
812.058489 98.183 171.8249
817.943000 98.114 171.9308
823.870152 98.040 172.0282
829.840255 97.959 172.1179
835.853619 97.874 172.2005
841.910559 97.784 172.2769
848.011390 97.691 172.3477
854.156430 97.595 172.4133
860.346000 97.498 172.4739
866.580422 97.401 172.5294
872.860020 97.305 172.5793
879.185124 97.212 172.6230
885.556062 97.122 172.6592
891.973166 97.038 172.6865
898.436771 96.958 172.7032
904.947215 96.886 172.7072
911.504835 96.820 172.6966
918.109975 96.762 172.6699
924.762978 96.711 172.6261
931.464192 96.668 172.5658
938.213966 96.630 172.4911
945.012651 96.598 172.4062
951.860602 96.570 172.3178
958.758176 96.546 172.2339
965.705733 96.524 172.1639
972.703635 96.504 172.1171
979.752246 96.486 172.1023
986.851935 96.470 172.1268
994.003071 96.457 172.1963
1001.206027 96.448 172.3149
1008.461179 96.443 172.4857
1015.768904 96.444 172.7108
1023.129584 96.454 172.9920
1030.543603 96.474 173.3305
1038.011347 96.506 173.7273
1045.533205 96.553 174.1826
1053.109569 96.618 174.6945
1060.740836 96.702 175.2585
1068.427401 96.808 175.8656
1076.169666 96.937 176.5014
1083.968035 97.088 177.1450
1091.822915 97.260 177.7692
1099.734713 97.450 178.3417
1107.703844 97.653 178.8288
1115.730723 97.863 179.1989
1123.815768 98.073 179.4281
1131.959400 98.276 179.5042
1140.162045 98.466 179.4287
1148.424129 98.638 179.2171
1156.746083 98.788 178.8951
1165.128342 98.916 178.4942
1173.571343 99.022 178.0473
1182.075524 99.108 177.5846
1190.641331 99.178 177.1313
1199.269209 99.233 176.7066
1207.959608 99.279 176.3235
1216.712981 99.318 175.9900
1225.529785 99.352 175.7092
1234.410479 99.384 175.4808
1243.355526 99.415 175.3023
1252.365393 99.444 175.1694
1261.440549 99.474 175.0771
1270.581467 99.502 175.0200
1279.788624 99.529 174.9929
1289.062500 99.555 174.9914
1298.403578 99.580 175.0115
1307.812346 99.603 175.0505
1317.289293 99.624 175.1060
1326.834914 99.644 175.1766
1336.449707 99.662 175.2610
1346.134173 99.680 175.3583
1355.888816 99.698 175.4673
1365.714145 99.716 175.5870
1375.610673 99.733 175.7157
1385.578915 99.751 175.8519
1395.619391 99.770 175.9937
1405.732624 99.789 176.1392
1415.919142 99.808 176.2863
1426.179476 99.829 176.4329
1436.514160 99.851 176.5771
1446.923734 99.875 176.7169
1457.408740 99.901 176.8505
1467.969724 99.931 176.9761
1478.607238 99.965 177.0920
1489.321836 100.003 177.1967
1500.114076 100.046 177.2889
1510.984521 100.093 177.3674
1521.933737 100.145 177.4313
1532.962297 100.201 177.4803
1544.070773 100.262 177.5142
1555.259747 100.325 177.5333
1566.529800 100.391 177.5382
1577.881521 100.457 177.5298
1589.315501 100.525 177.5089
1600.832336 100.592 177.4765
1612.432627 100.659 177.4333
1624.116978 100.724 177.3798
1635.886000 100.788 177.3162
1647.740304 100.851 177.2426
1659.680509 100.912 177.1589
1671.707238 100.972 177.0648
1683.821118 101.030 176.9601
1696.022780 101.088 176.8445
1708.312860 101.145 176.7181
1720.692000 101.202 176.5809
1733.160843 101.258 176.4330
1745.720041 101.313 176.2749
1758.370248 101.368 176.1072
1771.112124 101.422 175.9304
1783.946332 101.474 175.7452
1796.873543 101.523 175.5525
1809.894429 101.570 175.3530
1823.009670 101.613 175.1476
1836.219950 101.653 174.9370
1849.525956 101.688 174.7221
1862.928384 101.720 174.5036
1876.427931 101.747 174.2824
1890.025301 101.771 174.0592
1903.721204 101.791 173.8348
1917.516352 101.808 173.6100
1931.411466 101.822 173.3856
1945.407270 101.831 173.1623
1959.504493 101.837 172.9409
1973.703870 101.838 172.7222
1988.006142 101.833 172.5072
2002.412054 101.821 172.2966
2016.922357 101.802 172.0914
2031.537808 101.775 171.8926
2046.259169 101.738 171.7011
2061.087206 101.692 171.5178
2076.022694 101.636 171.3435
2091.066410 101.570 171.1790
2106.219139 101.495 171.0249
2121.481671 101.411 170.8822
2136.854802 101.319 170.7516
2152.339333 101.221 170.6337
2167.936071 101.118 170.5291
2183.645829 101.012 170.4380
2199.469427 100.904 170.3607
2215.407689 100.795 170.2964
2231.461446 100.687 170.2446
2247.631536 100.580 170.2041
2263.918800 100.477 170.1739
2280.324089 100.376 170.1527
2296.848258 100.279 170.1397
2313.492167 100.185 170.1342
2330.256685 100.094 170.1361
2347.142685 100.005 170.1455
2364.151049 99.919 170.1631
2381.282662 99.833 170.1901
2398.538418 99.750 170.2278
2415.919216 99.667 170.2777
2433.425962 99.585 170.3416
2451.059570 99.504 170.4210
2468.820958 99.425 170.5174
2486.711052 99.347 170.6323
2504.730786 99.272 170.7666
2522.881098 99.200 170.9211
2541.162934 99.133 171.0963
2559.577248 99.071 171.2921
2578.125000 99.016 171.5081
2596.807157 98.969 171.7434
2615.624692 98.932 171.9966
2634.578586 98.905 172.2660
2653.669829 98.891 172.5491
2672.899414 98.890 172.8431
2692.268345 98.903 173.1445
2711.777632 98.930 173.4496
2731.428290 98.970 173.7543
2751.221345 99.023 174.0547
2771.157829 99.086 174.3470
2791.238781 99.159 174.6281
2811.465248 99.238 174.8957
2831.838284 99.321 175.1483
2852.358952 99.406 175.3854
2873.028321 99.489 175.6074
2893.847468 99.569 175.8151
2914.817480 99.643 176.0097
2935.939449 99.709 176.1924
2957.214476 99.767 176.3647
2978.643672 99.814 176.5277
3000.228152 99.852 176.6828
3021.969041 99.878 176.8312
3043.867475 99.893 176.9745
3065.924593 99.897 177.1143
3088.141547 99.890 177.2522
3110.519493 99.874 177.3904
3133.059600 99.847 177.5309
3155.763041 99.812 177.6760
3178.631001 99.768 177.8281
3201.664672 99.718 177.9897
3224.865254 99.660 178.1634
3248.233957 99.597 178.3519
3271.771999 99.529 178.5582
3295.480608 99.456 178.7856
3319.361019 99.380 179.0380
3343.414477 99.300 179.3192
3367.642236 99.217 179.6337
3392.045560 99.133 179.9857
3416.625721 99.047 -179.6203
3441.383999 98.961 -179.1801
3466.321686 98.875 -178.6899
3491.440082 98.792 -178.1462
3516.740496 98.712 -177.5465
3542.224247 98.638 -176.8887
3567.892664 98.570 -176.1722
3593.747085 98.512 -175.3971
3619.788858 98.466 -174.5649
3646.019340 98.432 -173.6782
3672.439900 98.414 -172.7410
3699.051913 98.412 -171.7584
3725.856768 98.427 -170.7371
3752.855862 98.462 -169.6851
3780.050603 98.517 -168.6120
3807.442408 98.591 -167.5289
3835.032705 98.685 -166.4484
3862.822933 98.798 -165.3845
3890.814540 98.930 -164.3521
3919.008986 99.078 -163.3665
3947.407741 99.241 -162.4425
3976.012284 99.416 -161.5934
4004.824108 99.602 -160.8302
4033.844715 99.795 -160.1613
4063.075616 99.994 -159.5921
4092.518337 100.194 -159.1250
4122.174412 100.395 -158.7600
4152.045387 100.594 -158.4951
4182.132820 100.790 -158.3263
4212.438278 100.980 -158.2488
4242.963342 101.164 -158.2569
4273.709604 101.340 -158.3445
4304.678665 101.507 -158.5056
4335.872141 101.664 -158.7341
4367.291658 101.810 -159.0239
4398.938854 101.944 -159.3688
4430.815378 102.064 -159.7616
4462.922893 102.170 -160.1945
4495.263072 102.261 -160.6585
4527.837601 102.335 -161.1437
4560.648179 102.392 -161.6394
4593.696515 102.433 -162.1348
4626.984334 102.457 -162.6191
4660.513370 102.466 -163.0827
4694.285371 102.462 -163.5169
4728.302098 102.445 -163.9153
4762.565324 102.418 -164.2736
4797.076835 102.385 -164.5900
4831.838432 102.347 -164.8652
4866.851925 102.306 -165.1028
4902.119140 102.266 -165.3079
4937.641916 102.229 -165.4876
4973.422105 102.195 -165.6498
5009.461572 102.166 -165.8025
5045.762195 102.143 -165.9530
5082.325868 102.124 -166.1076
5119.154496 102.110 -166.2711
5156.250000 102.101 -166.4463
5193.614313 102.094 -166.6342
5231.249383 102.089 -166.8344
5269.157173 102.086 -167.0450
5307.339658 102.083 -167.2634
5345.798829 102.081 -167.4868
5384.536691 102.079 -167.7121
5423.555263 102.077 -167.9368
5462.856580 102.076 -168.1593
5502.442691 102.076 -168.3787
5542.315659 102.078 -168.5955
5582.477563 102.083 -168.8115
5622.930497 102.092 -169.0296
5663.676569 102.108 -169.2540
5704.717904 102.130 -169.4899
5746.056642 102.160 -169.7434
5787.694937 102.199 -170.0212
5829.634960 102.248 -170.3304
5871.878898 102.306 -170.6782
5914.428953 102.374 -171.0717
5957.287343 102.449 -171.5174
6000.456303 102.531 -172.0212
6043.938083 102.618 -172.5880
6087.734950 102.707 -173.2214
6131.849187 102.795 -173.9236
6176.283094 102.879 -174.6955
6221.038987 102.957 -175.5364
6266.119200 103.025 -176.4441
6311.526083 103.081 -177.4152
6357.262002 103.123 -178.4452
6403.329344 103.148 -179.5287
6449.730508 103.156 179.3401
6496.467914 103.145 178.1673
6543.543998 103.115 176.9586
6590.961215 103.067 175.7195
6638.722037 103.000 174.4546
6686.828954 102.916 173.1678
6735.284473 102.816 171.8621
6784.091120 102.702 170.5399
6833.251441 102.574 169.2029
6882.767998 102.434 167.8526
6932.643372 102.285 166.4905
6982.880164 102.126 165.1180
7033.480992 101.960 163.7364
7084.448495 101.789 162.3467
7135.785329 101.613 160.9491
7187.494171 101.434 159.5425
7239.577717 101.254 158.1239
7292.038681 101.073 156.6882
7344.879799 100.894 155.2275
7398.103826 100.717 153.7308
7451.713536 100.543 152.1838
7505.711724 100.372 150.5685
7560.101205 100.207 148.8628
7614.884815 100.046 147.0405
7670.065409 99.890 145.0710
7725.645865 99.738 142.9202
7781.629080 99.589 140.5503
7838.017972 99.441 137.9217
7894.815481 99.291 134.9938
7952.024569 99.135 131.7266
8009.648217 98.968 128.0815
8067.689429 98.785 124.0218
8126.151233 98.579 119.5118
8185.036674 98.344 114.5147
8244.348824 98.074 108.9885
8304.090774 97.763 102.8802
8364.265639 97.408 96.1167
8424.876556 97.005 88.5913
8485.926684 96.555 80.1491
8547.419207 96.061 70.5730
8609.357330 95.529 59.5901
8671.744282 94.969 46.9361
8734.583316 94.394 32.5344
8797.877707 93.821 16.7830
8861.630756 93.270 0.6959
8925.845785 92.764 -14.4565
8990.526143 92.322 -27.7852
9055.675202 91.962 -39.0397
9121.296357 91.697 -48.4078
9187.393031 91.529 -56.2355
9253.968668 91.452 -62.8682
9321.026740 91.455 -68.5961
9388.570742 91.520 -73.6488
9456.604196 91.629 -78.2047
9525.130648 91.764 -82.4019
9594.153671 91.910 -86.3487
9663.676863 92.054 -90.1302
9733.703850 92.183 -93.8127
9804.238280 92.288 -97.4476
9875.283832 92.363 -101.0723
9946.844210 92.399 -104.7119
10018.923143 92.391 -108.3793
10091.524390 92.334 -112.0758
10164.651736 92.223 -115.7914
10238.308993 92.056 -119.5059
10312.500000 91.830 -123.1907
10387.228626 91.543 -126.8104
10462.498767 91.196 -130.3267
10538.314345 90.789 -133.7001
10614.679315 90.326 -136.8941
10691.597657 89.809 -139.8764
10769.073381 89.243 -142.6213
10847.110526 88.632 -145.1108
10925.713161 87.980 -147.3359
11004.885382 87.293 -149.2979
11084.631318 86.575 -151.0089
11164.955126 85.833 -152.4934
11245.860993 85.069 -153.7892
11327.353138 84.290 -154.9470
11409.435808 83.499 -156.0303
11492.113283 82.700 -157.1141
11575.389873 81.898 -158.2822
11659.269920 81.095 -159.6260
11743.757796 80.296 -161.2427
11828.857906 79.506 -163.2358
11914.574686 78.732 -165.7168
12000.912606 77.984 -168.8079
12087.876166 77.278 -172.6428
12175.469900 76.636 -177.3624
12263.698373 76.089 176.9053
12352.566187 75.672 170.0861
12442.077974 75.420 162.2253
12532.238400 75.359 153.5490
12623.052165 75.495 144.4626
12714.524005 75.810 135.4506
12806.658687 76.272 126.9207
12899.461015 76.837 119.0994
12992.935827 77.467 112.0309
13087.087996 78.127 105.6373
13181.922430 78.791 99.7881
13277.444074 79.439 94.3464
13373.657907 80.058 89.1923
13470.568945 80.637 84.2303
13568.182241 81.169 79.3904
13666.502883 81.650 74.6240
13765.535996 82.075 69.9002
13865.286744 82.441 65.2019
13965.760328 82.746 60.5232
14066.961984 82.988 55.8670
14168.896989 83.164 51.2443
14271.570658 83.273 46.6730
14374.988342 83.313 42.1774
14479.155433 83.285 37.7877
14584.077362 83.187 33.5388
14689.759598 83.022 29.4705
14796.207652 82.791 25.6264
14903.427072 82.495 22.0552
15011.423448 82.140 18.8109
15120.202410 81.729 15.9546
15229.769630 81.268 13.5554
15340.130819 80.765 11.6887
15451.291730 80.231 10.4315
15563.258160 79.681 9.8493
15676.035944 79.134 9.9733
15789.630962 78.614 10.7692
15904.049137 78.145 12.1057
16019.296433 77.752 13.7455
16135.378859 77.449 15.3782
16252.302465 77.238 16.6920
16370.073348 77.109 17.4485
16488.697648 77.039 17.5228
16608.181548 77.000 16.8980
16728.531278 76.965 15.6340
16849.753112 76.914 13.8317
16971.853368 76.830 11.6061
17094.838414 76.706 9.0685
17218.714660 76.537 6.3161
17343.488565 76.325 3.4264
17469.166632 76.076 0.4551
17595.755415 75.798 -2.5640
17723.261512 75.501 -5.6166
17851.691571 75.198 -8.7061
17981.052287 74.900 -11.8510
18111.350404 74.622 -15.0846
18242.592715 74.377 -18.4532
18374.786062 74.176 -22.0146
18507.937336 74.028 -25.8337
18642.053479 73.933 -29.9744
18777.141484 73.887 -34.4885
18913.208391 73.879 -39.3997
19050.261296 73.893 -44.6854
19188.307342 73.913 -50.2575
19327.353727 73.924 -55.9456
19467.407699 73.919 -61.4916
19608.476560 73.897 -66.5644
19750.567664 73.865 -70.7978
19893.688419 73.833 -73.8463
20037.846286 73.813 -75.4429
