* Measurement data measured by REW V5.31.3
* Source: EXCL: Headset (USB-C to 3.5mm Headphone Jack Adapter), MICROPHONE (Master Volume), 0, volume: 0.250
* Format: 256k Log Swept Sine, 1 sweep at -12.0 dBFS with no timing reference
* Dated: Feb 9, 2025 5:05:10 PM
* REW Settings:
*  C-weighting compensation: Off
*  Target level: 75.0 dB
* Note: ; 
* Measurement: Ouroboros (Golem Mod) R2
* Smoothing: 1/6 octave
* Frequency Step: 96 ppo
* Start Frequency: 20.0 Hz
*
* Freq(Hz) SPL(dB) Phase(degrees)
20.141602 103.603 -109.1052
20.287556 103.590 -109.3516
20.434568 103.570 -109.6813
20.582645 103.542 -110.0833
20.731796 103.504 -110.5444
20.882027 103.453 -111.0510
21.033346 103.390 -111.5885
21.185763 103.312 -112.1431
21.339284 103.222 -112.7019
21.493917 103.121 -113.2535
21.649671 103.009 -113.7889
21.806553 102.890 -114.3017
21.964572 102.767 -114.7883
22.123737 102.643 -115.2485
22.284054 102.520 -115.6850
22.445534 102.403 -116.1033
22.608183 102.293 -116.5112
22.772012 102.192 -116.9177
22.937027 102.101 -117.3329
23.103238 102.022 -117.7663
23.270654 101.954 -118.2268
23.439282 101.897 -118.7214
23.609133 101.851 -119.2552
23.780215 101.814 -119.8309
23.952536 101.785 -120.4490
24.126106 101.764 -121.1074
24.300934 101.749 -121.8021
24.477028 101.740 -122.5275
24.654399 101.734 -123.2766
24.833055 101.732 -124.0414
25.013005 101.732 -124.8137
25.194260 101.734 -125.5852
25.376828 101.737 -126.3480
25.560719 101.739 -127.0954
25.745942 101.742 -127.8215
25.932508 101.743 -128.5221
26.120426 101.743 -129.1945
26.309705 101.741 -129.8376
26.500356 101.738 -130.4516
26.692388 101.732 -131.0380
26.885812 101.723 -131.5993
27.080638 101.712 -132.1386
27.276876 101.698 -132.6591
27.474535 101.682 -133.1642
27.673627 101.663 -133.6567
27.874161 101.644 -134.1396
28.076149 101.626 -134.6152
28.279600 101.611 -135.0858
28.484526 101.602 -135.5535
28.690937 101.600 -136.0206
28.898843 101.609 -136.4891
29.108256 101.632 -136.9610
29.319186 101.669 -137.4383
29.531645 101.721 -137.9222
29.745644 101.789 -138.4135
29.961193 101.870 -138.9119
30.178304 101.962 -139.4162
30.396989 102.062 -139.9240
30.617258 102.164 -140.4323
30.839123 102.264 -140.9374
31.062596 102.357 -141.4356
31.287688 102.439 -141.9235
31.514412 102.505 -142.3980
31.742778 102.550 -142.8573
31.972800 102.573 -143.3004
32.204488 102.569 -143.7270
32.437855 102.538 -144.1380
32.672913 102.478 -144.5345
32.909674 102.389 -144.9180
33.148151 102.273 -145.2902
33.388356 102.130 -145.6528
33.630302 101.963 -146.0074
33.874001 101.776 -146.3556
34.119466 101.572 -146.6987
34.366710 101.356 -147.0381
34.615745 101.132 -147.3747
34.866585 100.905 -147.7090
35.119243 100.680 -148.0410
35.373731 100.461 -148.3702
35.630064 100.252 -148.6953
35.888254 100.057 -149.0149
36.148315 99.878 -149.3272
36.410261 99.718 -149.6305
36.674104 99.579 -149.9235
36.939860 99.460 -150.2054
37.207542 99.364 -150.4756
37.477163 99.289 -150.7343
37.748738 99.236 -150.9822
38.022281 99.204 -151.2202
38.297806 99.194 -151.4496
38.575327 99.204 -151.6719
38.854860 99.234 -151.8889
39.136419 99.284 -152.1023
39.420017 99.355 -152.3139
39.705671 99.444 -152.5251
39.993395 99.553 -152.7368
40.283203 99.681 -152.9492
40.575112 99.825 -153.1622
40.869136 99.986 -153.3748
41.165290 100.161 -153.5860
41.463591 100.348 -153.7948
41.764053 100.546 -154.0004
42.066693 100.752 -154.2024
42.371525 100.962 -154.4006
42.678567 101.176 -154.5952
42.987834 101.389 -154.7862
43.299341 101.599 -154.9740
43.613106 101.803 -155.1591
43.929145 102.000 -155.3428
44.247473 102.186 -155.5265
44.568109 102.361 -155.7125
44.891068 102.522 -155.9033
45.216367 102.669 -156.1011
45.544023 102.799 -156.3080
45.874054 102.913 -156.5251
46.206476 103.009 -156.7526
46.541307 103.089 -156.9900
46.878565 103.151 -157.2358
47.218266 103.196 -157.4879
47.560429 103.225 -157.7436
47.905072 103.238 -157.9997
48.252212 103.237 -158.2527
48.601867 103.223 -158.4995
48.954056 103.196 -158.7372
49.308798 103.160 -158.9642
49.666109 103.115 -159.1800
50.026010 103.064 -159.3854
50.388520 103.008 -159.5819
50.753656 102.949 -159.7713
51.121437 102.888 -159.9549
51.491884 102.827 -160.1337
51.865016 102.767 -160.3076
52.240851 102.709 -160.4759
52.619410 102.654 -160.6377
53.000712 102.602 -160.7920
53.384777 102.554 -160.9379
53.771625 102.508 -161.0749
54.161276 102.466 -161.2026
54.553751 102.425 -161.3206
54.949070 102.386 -161.4287
55.347254 102.348 -161.5271
55.748323 102.310 -161.6168
56.152298 102.272 -161.6992
56.559201 102.233 -161.7761
56.969052 102.193 -161.8495
57.381873 102.152 -161.9204
57.797686 102.109 -161.9891
58.216512 102.065 -162.0547
58.638373 102.020 -162.1157
59.063291 101.974 -162.1697
59.491288 101.928 -162.2144
59.922386 101.881 -162.2479
60.356608 101.835 -162.2695
60.793977 101.790 -162.2801
61.234515 101.747 -162.2821
61.678246 101.707 -162.2789
62.125192 101.671 -162.2744
62.575377 101.639 -162.2723
63.028824 101.611 -162.2756
63.485557 101.589 -162.2864
63.945599 101.571 -162.3063
64.408975 101.559 -162.3366
64.875709 101.551 -162.3783
65.345825 101.548 -162.4327
65.819348 101.550 -162.5011
66.296302 101.556 -162.5847
66.776713 101.566 -162.6848
67.260604 101.580 -162.8024
67.748002 101.597 -162.9381
68.238932 101.619 -163.0918
68.733420 101.643 -163.2634
69.231490 101.671 -163.4521
69.733170 101.702 -163.6569
70.238485 101.736 -163.8768
70.747463 101.773 -164.1110
71.260128 101.812 -164.3593
71.776508 101.854 -164.6219
72.296630 101.898 -164.8994
72.820521 101.943 -165.1927
73.348209 101.990 -165.5026
73.879720 102.038 -165.8293
74.415083 102.087 -166.1727
74.954326 102.135 -166.5320
75.497475 102.184 -166.9066
76.044561 102.231 -167.2959
76.595612 102.277 -167.6995
77.150655 102.321 -168.1176
77.709720 102.361 -168.5499
78.272837 102.397 -168.9965
78.840034 102.428 -169.4570
79.411342 102.455 -169.9308
79.986789 102.476 -170.4176
80.566406 102.491 -170.9167
81.150224 102.501 -171.4274
81.738272 102.505 -171.9491
82.330581 102.505 -172.4809
82.927182 102.500 -173.0217
83.528107 102.493 -173.5705
84.133386 102.485 -174.1264
84.743051 102.478 -174.6883
85.357134 102.475 -175.2555
85.975667 102.480 -175.8271
86.598682 102.496 -176.4027
87.226212 102.525 -176.9818
87.858289 102.572 -177.5638
88.494946 102.638 -178.1485
89.136217 102.726 -178.7356
89.782135 102.836 -179.3248
90.432733 102.967 -179.9159
91.088046 103.116 179.4913
91.748108 103.280 178.8971
92.412952 103.456 178.3021
93.082615 103.636 177.7072
93.757130 103.817 177.1133
94.436533 103.993 176.5215
95.120859 104.159 175.9324
95.810144 104.312 175.3468
96.504423 104.448 174.7650
97.203734 104.566 174.1874
97.908112 104.664 173.6144
98.617595 104.743 173.0460
99.332219 104.804 172.4824
100.052021 104.849 171.9235
100.777039 104.878 171.3696
101.507311 104.895 170.8204
102.242875 104.902 170.2766
102.983769 104.899 169.7383
103.730032 104.889 169.2066
104.481702 104.873 168.6821
105.238820 104.849 168.1656
106.001424 104.819 167.6579
106.769554 104.781 167.1592
107.543250 104.732 166.6700
108.322553 104.673 166.1907
109.107503 104.601 165.7218
109.898141 104.515 165.2642
110.694508 104.415 164.8187
111.496646 104.299 164.3862
112.304596 104.168 163.9675
113.118402 104.023 163.5633
113.938104 103.866 163.1739
114.763747 103.699 162.7994
115.595372 103.523 162.4397
116.433024 103.341 162.0948
117.276746 103.156 161.7644
118.126581 102.968 161.4489
118.982575 102.781 161.1484
119.844772 102.594 160.8635
120.713217 102.409 160.5946
121.587954 102.225 160.3419
122.469031 102.042 160.1057
123.356492 101.860 159.8862
124.250384 101.676 159.6838
125.150753 101.491 159.4993
126.057647 101.303 159.3336
126.971113 101.110 159.1874
127.891198 100.912 159.0615
128.817950 100.707 158.9564
129.751418 100.494 158.8724
130.691651 100.275 158.8099
131.638696 100.049 158.7692
132.592604 99.818 158.7507
133.553425 99.583 158.7550
134.521208 99.348 158.7831
135.496004 99.114 158.8359
136.477864 98.886 158.9147
137.466839 98.667 159.0206
138.462981 98.460 159.1548
139.466340 98.269 159.3183
140.476971 98.096 159.5116
141.494925 97.942 159.7352
142.520256 97.808 159.9890
143.553016 97.693 160.2727
144.593260 97.595 160.5859
145.641043 97.511 160.9278
146.696418 97.438 161.2976
147.759441 97.372 161.6945
148.830166 97.309 162.1178
149.908651 97.246 162.5663
150.994951 97.182 163.0392
152.089123 97.116 163.5349
153.191223 97.046 164.0519
154.301310 96.973 164.5886
155.419441 96.899 165.1431
156.545674 96.825 165.7136
157.680069 96.754 166.2982
158.822683 96.686 166.8949
159.973578 96.623 167.5021
161.132813 96.567 168.1179
162.300447 96.519 168.7401
163.476543 96.480 169.3666
164.661162 96.449 169.9948
165.854364 96.427 170.6221
167.056213 96.415 171.2462
168.266772 96.413 171.8648
169.486102 96.420 172.4759
170.714268 96.436 173.0775
171.951334 96.462 173.6678
173.197364 96.498 174.2450
174.452424 96.543 174.8076
175.716578 96.596 175.3543
176.989893 96.657 175.8839
178.272434 96.724 176.3953
179.564270 96.796 176.8875
180.865467 96.872 177.3597
182.176092 96.949 177.8109
183.496216 97.027 178.2405
184.825905 97.104 178.6479
186.165229 97.181 179.0326
187.514259 97.256 179.3940
188.873065 97.330 179.7321
190.241717 97.403 -179.9535
191.620287 97.475 -179.6625
193.008847 97.546 -179.3949
194.407468 97.618 -179.1504
195.816225 97.690 -178.9287
197.235190 97.762 -178.7298
198.664438 97.835 -178.5535
200.104042 97.906 -178.3994
201.554078 97.977 -178.2672
203.014622 98.045 -178.1565
204.485750 98.112 -178.0663
205.967538 98.175 -177.9958
207.460064 98.234 -177.9441
208.963405 98.289 -177.9103
210.477640 98.340 -177.8937
212.002848 98.388 -177.8937
213.539108 98.431 -177.9097
215.086500 98.471 -177.9413
216.645105 98.507 -177.9879
218.215005 98.540 -178.0492
219.796281 98.570 -178.1245
221.389015 98.596 -178.2131
222.993292 98.618 -178.3141
224.609193 98.636 -178.4266
226.236804 98.648 -178.5496
227.876209 98.654 -178.6822
229.527494 98.653 -178.8235
231.190745 98.645 -178.9727
232.866048 98.631 -179.1292
234.553491 98.610 -179.2924
236.253163 98.582 -179.4616
237.965150 98.549 -179.6362
239.689544 98.511 -179.8151
241.426433 98.469 -179.9973
243.175909 98.425 179.8185
244.938062 98.379 179.6334
246.712984 98.332 179.4489
248.500768 98.285 179.2661
250.301507 98.238 179.0859
252.115295 98.193 178.9095
253.942226 98.151 178.7376
255.782396 98.111 178.5709
257.635901 98.075 178.4102
259.502837 98.043 178.2558
261.383301 98.016 178.1083
263.277392 97.993 177.9682
265.185209 97.976 177.8356
267.106850 97.965 177.7110
269.042417 97.959 177.5944
270.992009 97.958 177.4862
272.955729 97.962 177.3864
274.933678 97.971 177.2952
276.925961 97.984 177.2129
278.932681 98.001 177.1393
280.953942 98.021 177.0746
282.989850 98.044 177.0183
285.040511 98.070 176.9700
287.106032 98.100 176.9287
289.186521 98.135 176.8934
291.282086 98.175 176.8625
293.392836 98.221 176.8342
295.518881 98.274 176.8067
297.660333 98.334 176.7778
299.817302 98.400 176.7455
301.989902 98.472 176.7080
304.178245 98.549 176.6636
306.382446 98.628 176.6109
308.602620 98.708 176.5488
310.838882 98.787 176.4767
313.091348 98.862 176.3943
315.360137 98.932 176.3017
317.645367 98.996 176.1996
319.947156 99.051 176.0887
322.265625 99.097 175.9701
324.600895 99.134 175.8449
326.953086 99.159 175.7142
329.322323 99.174 175.5789
331.708729 99.177 175.4397
334.112427 99.169 175.2973
336.533543 99.149 175.1519
338.972204 99.118 175.0039
341.428536 99.077 174.8536
343.902668 99.026 174.7014
346.394729 98.967 174.5477
348.904848 98.901 174.3932
351.433156 98.831 174.2385
353.979786 98.759 174.0841
356.544869 98.686 173.9308
359.128540 98.617 173.7793
361.730934 98.553 173.6299
364.352185 98.497 173.4835
366.992431 98.452 173.3403
369.651810 98.421 173.2010
372.330459 98.405 173.0659
375.028519 98.405 172.9351
377.746130 98.421 172.8087
380.483434 98.454 172.6868
383.240574 98.501 172.5694
386.017693 98.560 172.4565
388.814937 98.630 172.3483
391.632450 98.707 172.2451
394.470380 98.788 172.1473
397.328875 98.872 172.0559
400.208084 98.955 171.9716
403.108157 99.037 171.8953
406.029245 99.116 171.8282
408.971500 99.191 171.7712
411.935076 99.262 171.7253
414.920127 99.329 171.6915
417.926810 99.394 171.6704
420.955280 99.456 171.6630
424.005695 99.517 171.6697
427.078215 99.578 171.6911
430.173000 99.639 171.7277
433.290211 99.701 171.7797
436.430010 99.764 171.8472
439.592562 99.828 171.9302
442.778031 99.892 172.0283
445.986583 99.955 172.1411
449.218386 100.015 172.2677
452.473607 100.073 172.4073
455.752418 100.125 172.5586
459.054987 100.171 172.7199
462.381489 100.210 172.8893
465.732096 100.242 173.0644
469.106983 100.266 173.2425
472.506325 100.283 173.4207
475.930301 100.293 173.5961
479.379088 100.298 173.7656
482.852867 100.297 173.9260
486.351817 100.293 174.0746
489.876123 100.285 174.2084
493.425968 100.275 174.3253
497.001536 100.263 174.4229
500.603014 100.249 174.4996
504.230589 100.234 174.5541
507.884452 100.216 174.5856
511.564792 100.195 174.5939
515.271802 100.172 174.5793
519.005673 100.146 174.5428
522.766602 100.119 174.4860
526.554785 100.089 174.4110
530.370418 100.060 174.3207
534.213700 100.033 174.2180
538.084833 100.008 174.1057
541.984018 99.989 173.9865
545.911457 99.977 173.8624
549.867357 99.972 173.7346
553.851922 99.975 173.6034
557.865362 99.985 173.4684
561.907884 100.002 173.3287
565.979700 100.023 173.1829
570.081022 100.046 173.0298
574.212064 100.070 172.8688
578.373042 100.091 172.6998
582.564171 100.108 172.5233
586.785671 100.119 172.3405
591.037762 100.123 172.1531
595.320665 100.117 171.9635
599.634604 100.103 171.7738
603.979804 100.079 171.5865
608.356491 100.045 171.4041
612.764893 100.002 171.2286
617.205240 99.952 171.0623
621.677763 99.894 170.9069
626.182696 99.832 170.7639
630.720274 99.766 170.6346
635.290733 99.700 170.5198
639.894312 99.634 170.4200
644.531250 99.572 170.3351
649.201789 99.514 170.2647
653.906173 99.463 170.2078
658.644647 99.420 170.1634
663.417457 99.384 170.1299
668.224854 99.355 170.1060
673.067086 99.332 170.0901
677.944408 99.315 170.0809
682.857073 99.301 170.0768
687.805336 99.289 170.0768
692.789457 99.277 170.0798
697.809695 99.265 170.0848
702.866312 99.250 170.0913
707.959571 99.231 170.0987
713.089738 99.209 170.1068
718.257080 99.182 170.1157
723.461867 99.151 170.1256
728.704370 99.115 170.1368
733.984862 99.076 170.1497
739.303619 99.034 170.1647
744.660918 98.988 170.1823
750.057038 98.941 170.2024
755.492260 98.893 170.2253
760.966869 98.844 170.2511
766.481148 98.793 170.2794
772.035387 98.742 170.3102
777.629873 98.689 170.3434
783.264900 98.633 170.3791
788.940760 98.575 170.4172
794.657750 98.512 170.4583
800.416168 98.445 170.5027
806.216313 98.372 170.5510
812.058489 98.293 170.6039
817.943000 98.207 170.6620
823.870152 98.115 170.7259
829.840255 98.017 170.7961
835.853619 97.914 170.8732
841.910559 97.806 170.9575
848.011390 97.694 171.0492
854.156430 97.581 171.1481
860.346000 97.467 171.2539
866.580422 97.353 171.3657
872.860020 97.242 171.4821
879.185124 97.134 171.6009
885.556062 97.031 171.7196
891.973166 96.935 171.8350
898.436771 96.846 171.9437
904.947215 96.767 172.0418
911.504835 96.696 172.1259
918.109975 96.636 172.1928
924.762978 96.585 172.2404
931.464192 96.544 172.2678
938.213966 96.511 172.2762
945.012651 96.485 172.2689
951.860602 96.465 172.2512
958.758176 96.448 172.2307
965.705733 96.435 172.2156
972.703635 96.425 172.2150
979.752246 96.416 172.2372
986.851935 96.410 172.2894
994.003071 96.405 172.3775
1001.206027 96.404 172.5061
1008.461179 96.408 172.6786
1015.768904 96.417 172.8979
1023.129584 96.434 173.1660
1030.543603 96.460 173.4851
1038.011347 96.499 173.8566
1045.533205 96.551 174.2811
1053.109569 96.621 174.7573
1060.740836 96.709 175.2814
1068.427401 96.819 175.8452
1076.169666 96.950 176.4354
1083.968035 97.103 177.0323
1091.822915 97.275 177.6101
1099.734713 97.466 178.1379
1107.703844 97.669 178.5825
1115.730723 97.878 178.9123
1123.815768 98.088 179.1027
1131.959400 98.292 179.1399
1140.162045 98.481 179.0246
1148.424129 98.652 178.7713
1156.746083 98.801 178.4057
1165.128342 98.927 177.9603
1173.571343 99.029 177.4688
1182.075524 99.111 176.9626
1190.641331 99.174 176.4677
1199.269209 99.223 176.0042
1207.959608 99.261 175.5859
1216.712981 99.291 175.2211
1225.529785 99.316 174.9136
1234.410479 99.338 174.6639
1243.355526 99.358 174.4699
1252.365393 99.378 174.3279
1261.440549 99.396 174.2334
1270.581467 99.414 174.1814
1279.788624 99.432 174.1671
1289.062500 99.448 174.1861
1298.403578 99.463 174.2345
1307.812346 99.477 174.3091
1317.289293 99.490 174.4074
1326.834914 99.503 174.5272
1336.449707 99.515 174.6667
1346.134173 99.528 174.8239
1355.888816 99.541 174.9968
1365.714145 99.556 175.1830
1375.610673 99.572 175.3801
1385.578915 99.589 175.5851
1395.619391 99.607 175.7950
1405.732624 99.628 176.0066
1415.919142 99.649 176.2169
1426.179476 99.673 176.4229
1436.514160 99.700 176.6219
1446.923734 99.729 176.8113
1457.408740 99.761 176.9889
1467.969724 99.797 177.1525
1478.607238 99.838 177.3006
1489.321836 99.883 177.4316
1500.114076 99.933 177.5445
1510.984521 99.987 177.6387
1521.933737 100.046 177.7138
1532.962297 100.108 177.7700
1544.070773 100.173 177.8076
1555.259747 100.241 177.8275
1566.529800 100.310 177.8307
1577.881521 100.380 177.8185
1589.315501 100.449 177.7923
1600.832336 100.518 177.7535
1612.432627 100.585 177.7033
1624.116978 100.651 177.6428
1635.886000 100.716 177.5728
1647.740304 100.779 177.4937
1659.680509 100.840 177.4059
1671.707238 100.901 177.3094
1683.821118 100.961 177.2041
1696.022780 101.021 177.0898
1708.312860 101.080 176.9665
1720.692000 101.139 176.8337
1733.160843 101.199 176.6913
1745.720041 101.258 176.5389
1758.370248 101.317 176.3765
1771.112124 101.375 176.2039
1783.946332 101.431 176.0211
1796.873543 101.486 175.8284
1809.894429 101.538 175.6260
1823.009670 101.586 175.4144
1836.219950 101.631 175.1940
1849.525956 101.673 174.9655
1862.928384 101.710 174.7295
1876.427931 101.743 174.4869
1890.025301 101.772 174.2383
1903.721204 101.797 173.9846
1917.516352 101.818 173.7265
1931.411466 101.835 173.4649
1945.407270 101.848 173.2006
1959.504493 101.856 172.9346
1973.703870 101.859 172.6679
1988.006142 101.855 172.4016
2002.412054 101.844 172.1368
2016.922357 101.825 171.8749
2031.537808 101.796 171.6171
2046.259169 101.758 171.3649
2061.087206 101.709 171.1196
2076.022694 101.649 170.8825
2091.066410 101.579 170.6551
2106.219139 101.499 170.4388
2121.481671 101.409 170.2350
2136.854802 101.310 170.0454
2152.339333 101.204 169.8713
2167.936071 101.092 169.7140
2183.645829 100.975 169.5745
2199.469427 100.855 169.4532
2215.407689 100.734 169.3504
2231.461446 100.612 169.2655
2247.631536 100.492 169.1978
2263.918800 100.373 169.1463
2280.324089 100.257 169.1098
2296.848258 100.143 169.0872
2313.492167 100.032 169.0781
2330.256685 99.924 169.0819
2347.142685 99.818 169.0990
2364.151049 99.714 169.1301
2381.282662 99.611 169.1763
2398.538418 99.509 169.2393
2415.919216 99.408 169.3209
2433.425962 99.307 169.4230
2451.059570 99.207 169.5479
2468.820958 99.109 169.6973
2486.711052 99.011 169.8734
2504.730786 98.916 170.0775
2522.881098 98.825 170.3112
2541.162934 98.737 170.5751
2559.577248 98.655 170.8700
2578.125000 98.580 171.1959
2596.807157 98.513 171.5524
2615.624692 98.457 171.9389
2634.578586 98.412 172.3541
2653.669829 98.381 172.7961
2672.899414 98.364 173.2625
2692.268345 98.362 173.7500
2711.777632 98.376 174.2546
2731.428290 98.405 174.7716
2751.221345 98.449 175.2960
2771.157829 98.506 175.8227
2791.238781 98.574 176.3470
2811.465248 98.651 176.8647
2831.838284 98.734 177.3725
2852.358952 98.821 177.8681
2873.028321 98.910 178.3501
2893.847468 98.997 178.8175
2914.817480 99.082 179.2698
2935.939449 99.161 179.7068
2957.214476 99.235 -179.8717
2978.643672 99.301 -179.4660
3000.228152 99.358 -179.0761
3021.969041 99.407 -178.7018
3043.867475 99.447 -178.3428
3065.924593 99.477 -177.9985
3088.141547 99.498 -177.6678
3110.519493 99.511 -177.3497
3133.059600 99.515 -177.0426
3155.763041 99.512 -176.7451
3178.631001 99.502 -176.4555
3201.664672 99.486 -176.1722
3224.865254 99.465 -175.8932
3248.233957 99.438 -175.6163
3271.771999 99.408 -175.3391
3295.480608 99.372 -175.0584
3319.361019 99.334 -174.7707
3343.414477 99.291 -174.4716
3367.642236 99.245 -174.1566
3392.045560 99.197 -173.8207
3416.625721 99.147 -173.4585
3441.383999 99.095 -173.0651
3466.321686 99.043 -172.6352
3491.440082 98.991 -172.1643
3516.740496 98.942 -171.6483
3542.224247 98.897 -171.0840
3567.892664 98.858 -170.4691
3593.747085 98.826 -169.8025
3619.788858 98.804 -169.0844
3646.019340 98.794 -168.3160
3672.439900 98.796 -167.5000
3699.051913 98.812 -166.6401
3725.856768 98.845 -165.7417
3752.855862 98.894 -164.8112
3780.050603 98.960 -163.8567
3807.442408 99.045 -162.8879
3835.032705 99.148 -161.9157
3862.822933 99.268 -160.9527
3890.814540 99.406 -160.0125
3919.008986 99.560 -159.1092
3947.407741 99.728 -158.2569
3976.012284 99.908 -157.4684
4004.824108 100.100 -156.7547
4033.844715 100.299 -156.1244
4063.075616 100.504 -155.5834
4092.518337 100.712 -155.1351
4122.174412 100.922 -154.7805
4152.045387 101.131 -154.5187
4182.132820 101.339 -154.3475
4212.438278 101.544 -154.2637
4242.963342 101.745 -154.2637
4273.709604 101.940 -154.3437
4304.678665 102.129 -154.5007
4335.872141 102.312 -154.7323
4367.291658 102.486 -155.0365
4398.938854 102.651 -155.4119
4430.815378 102.806 -155.8568
4462.922893 102.949 -156.3690
4495.263072 103.078 -156.9453
4527.837601 103.192 -157.5809
4560.648179 103.290 -158.2700
4593.696515 103.370 -159.0049
4626.984334 103.432 -159.7773
4660.513370 103.475 -160.5774
4694.285371 103.500 -161.3949
4728.302098 103.507 -162.2193
4762.565324 103.496 -163.0399
4797.076835 103.469 -163.8463
4831.838432 103.428 -164.6290
4866.851925 103.374 -165.3792
4902.119140 103.308 -166.0897
4937.641916 103.234 -166.7543
4973.422105 103.152 -167.3685
5009.461572 103.065 -167.9293
5045.762195 102.975 -168.4347
5082.325868 102.884 -168.8840
5119.154496 102.792 -169.2774
5156.250000 102.702 -169.6155
5193.614313 102.614 -169.8996
5231.249383 102.528 -170.1313
5269.157173 102.446 -170.3128
5307.339658 102.369 -170.4464
5345.798829 102.296 -170.5354
5384.536691 102.228 -170.5832
5423.555263 102.166 -170.5942
5462.856580 102.109 -170.5734
5502.442691 102.060 -170.5265
5542.315659 102.018 -170.4599
5582.477563 101.985 -170.3806
5622.930497 101.960 -170.2960
5663.676569 101.946 -170.2139
5704.717904 101.943 -170.1421
5746.056642 101.952 -170.0884
5787.694937 101.974 -170.0604
5829.634960 102.008 -170.0657
5871.878898 102.054 -170.1117
5914.428953 102.113 -170.2054
5957.287343 102.184 -170.3539
6000.456303 102.263 -170.5637
6043.938083 102.351 -170.8409
6087.734950 102.444 -171.1908
6131.849187 102.539 -171.6179
6176.283094 102.633 -172.1254
6221.038987 102.723 -172.7153
6266.119200 102.806 -173.3880
6311.526083 102.879 -174.1425
6357.262002 102.938 -174.9761
6403.329344 102.982 -175.8846
6449.730508 103.009 -176.8627
6496.467914 103.017 -177.9037
6543.543998 103.005 -179.0004
6590.961215 102.973 179.8551
6638.722037 102.920 178.6708
6686.828954 102.847 177.4548
6735.284473 102.756 176.2147
6784.091120 102.646 174.9576
6833.251441 102.520 173.6904
6882.767998 102.378 172.4188
6932.643372 102.224 171.1484
6982.880164 102.057 169.8844
7033.480992 101.880 168.6313
7084.448495 101.694 167.3930
7135.785329 101.502 166.1725
7187.494171 101.304 164.9713
7239.577717 101.104 163.7889
7292.038681 100.901 162.6224
7344.879799 100.700 161.4661
7398.103826 100.499 160.3107
7451.713536 100.302 159.1436
7505.711724 100.110 157.9474
7560.101205 99.922 156.7009
7614.884815 99.739 155.3781
7670.065409 99.562 153.9486
7725.645865 99.389 152.3787
7781.629080 99.218 150.6321
7838.017972 99.046 148.6718
7894.815481 98.871 146.4620
7952.024569 98.686 143.9704
8009.648217 98.487 141.1693
8067.689429 98.266 138.0375
8126.151233 98.017 134.5596
8185.036674 97.733 130.7260
8244.348824 97.408 126.5305
8304.090774 97.034 121.9662
8364.265639 96.608 117.0190
8424.876556 96.126 111.6530
8485.926684 95.587 105.7852
8547.419207 94.993 99.2368
8609.357330 94.351 91.6290
8671.744282 93.670 82.1458
8734.583316 92.964 68.9385
8797.877707 92.252 47.8343
8861.630756 91.559 13.5301
8925.845785 90.911 -23.5853
8990.526143 90.338 -47.4575
9055.675202 89.867 -61.2733
9121.296357 89.517 -70.1068
9187.393031 89.298 -76.3716
9253.968668 89.203 -81.1744
9321.026740 89.217 -85.0795
9388.570742 89.316 -88.4099
9456.604196 89.475 -91.3703
9525.130648 89.669 -94.1013
9594.153671 89.879 -96.7054
9663.676863 90.087 -99.2590
9733.703850 90.279 -101.8193
9804.238280 90.445 -104.4273
9875.283832 90.576 -107.1102
9946.844210 90.664 -109.8820
10018.923143 90.705 -112.7443
10091.524390 90.692 -115.6873
10164.651736 90.623 -118.6907
10238.308993 90.495 -121.7253
10312.500000 90.305 -124.7549
10387.228626 90.055 -127.7387
10462.498767 89.744 -130.6343
10538.314345 89.376 -133.4006
10614.679315 88.953 -136.0002
10691.597657 88.480 -138.4022
10769.073381 87.962 -140.5831
10847.110526 87.403 -142.5286
10925.713161 86.810 -144.2346
11004.885382 86.188 -145.7086
11084.631318 85.542 -146.9698
11164.955126 84.878 -148.0504
11245.860993 84.201 -148.9952
11327.353138 83.515 -149.8611
11409.435808 82.825 -150.7150
11492.113283 82.132 -151.6314
11575.389873 81.441 -152.6890
11659.269920 80.751 -153.9667
11743.757796 80.065 -155.5422
11828.857906 79.381 -157.4899
11914.574686 78.701 -159.8812
12000.912606 78.025 -162.7869
12087.876166 77.357 -166.2786
12175.469900 76.701 -170.4304
12263.698373 76.071 -175.3155
12352.566187 75.486 179.0057
12442.077974 74.973 172.5126
12532.238400 74.569 165.2653
12623.052165 74.311 157.4434
12714.524005 74.230 149.3492
12806.658687 74.339 141.3456
12899.461015 74.627 133.7504
12992.935827 75.064 126.7537
13087.087996 75.606 120.3991
13181.922430 76.213 114.6234
13277.444074 76.847 109.3104
13373.657907 77.480 104.3336
13470.568945 78.089 99.5821
13568.182241 78.660 94.9697
13666.502883 79.181 90.4371
13765.535996 79.645 85.9490
13865.286744 80.046 81.4901
13965.760328 80.380 77.0601
14066.961984 80.645 72.6704
14168.896989 80.840 68.3412
14271.570658 80.964 64.0989
14374.988342 81.017 59.9743
14479.155433 81.002 56.0024
14584.077362 80.920 52.2216
14689.759598 80.773 48.6740
14796.207652 80.565 45.4065
14903.427072 80.299 42.4720
15011.423448 79.983 39.9304
15120.202410 79.622 37.8484
15229.769630 79.227 36.2973
15340.130819 78.813 35.3448
15451.291730 78.396 35.0399
15563.258160 78.002 35.3878
15676.035944 77.653 36.3195
15789.630962 77.377 37.6689
15904.049137 77.190 39.1776
16019.296433 77.097 40.5385
16135.378859 77.090 41.4686
16252.302465 77.147 41.7705
16370.073348 77.237 41.3570
16488.697648 77.333 40.2382
16608.181548 77.408 38.4904
16728.531278 77.443 36.2252
16849.753112 77.424 33.5676
16971.853368 77.342 30.6430
17094.838414 77.195 27.5707
17218.714660 76.984 24.4590
17343.488565 76.715 21.4010
17469.166632 76.400 18.4675
17595.755415 76.056 15.6978
17723.261512 75.704 13.0908
17851.691571 75.370 10.5986
17981.052287 75.079 8.1290
18111.350404 74.854 5.5569
18242.592715 74.710 2.7438
18374.786062 74.648 -0.4427
18507.937336 74.663 -4.1119
18642.053479 74.736 -8.3398
18777.141484 74.846 -13.1619
18913.208391 74.970 -18.5659
19050.261296 75.087 -24.4814
19188.307342 75.179 -30.7657
19327.353727 75.239 -37.1929
19467.407699 75.262 -43.4498
19608.476560 75.255 -49.1550
19750.567664 75.229 -53.8997
19893.688419 75.200 -57.3062
20037.846286 75.181 -59.0865
