* Measurement data measured by REW V5.31.3
* Source: EXCL: Headset (USB-C to 3.5mm Headphone Jack Adapter), MICROPHONE (Master Volume), 0, volume: 0.170
* Format: 256k Log Swept Sine, 1 sweep at -12.0 dBFS with no timing reference
* Dated: Feb 9, 2025 1:44:36 PM
* REW Settings:
*  C-weighting compensation: Off
*  Target level: 75.0 dB
* Note: ; 
* Measurement: uroboros (Golem Mod) L10
* Smoothing: 1/6 octave
* Frequency Step: 96 ppo
* Start Frequency: 20.0 Hz
*
* Freq(Hz) SPL(dB) Phase(degrees)
20.141602 106.156 -116.7270
20.287556 106.144 -116.9359
20.434568 106.127 -117.2159
20.582645 106.102 -117.5581
20.731796 106.067 -117.9529
20.882027 106.021 -118.3904
21.033346 105.962 -118.8609
21.185763 105.889 -119.3555
21.339284 105.803 -119.8665
21.493917 105.703 -120.3869
21.649671 105.591 -120.9115
21.806553 105.468 -121.4359
21.964572 105.336 -121.9572
22.123737 105.197 -122.4737
22.284054 105.053 -122.9847
22.445534 104.906 -123.4904
22.608183 104.760 -123.9919
22.772012 104.615 -124.4909
22.937027 104.473 -124.9896
23.103238 104.338 -125.4904
23.270654 104.210 -125.9961
23.439282 104.092 -126.5094
23.609133 103.985 -127.0332
23.780215 103.890 -127.5700
23.952536 103.809 -128.1221
24.126106 103.742 -128.6913
24.300934 103.691 -129.2786
24.477028 103.654 -129.8844
24.654399 103.632 -130.5079
24.833055 103.624 -131.1471
25.013005 103.627 -131.7991
25.194260 103.640 -132.4598
25.376828 103.659 -133.1241
25.560719 103.684 -133.7866
25.745942 103.711 -134.4414
25.932508 103.738 -135.0827
26.120426 103.763 -135.7051
26.309705 103.784 -136.3042
26.500356 103.799 -136.8762
26.692388 103.808 -137.4188
26.885812 103.809 -137.9305
27.080638 103.802 -138.4114
27.276876 103.787 -138.8624
27.474535 103.764 -139.2854
27.673627 103.734 -139.6831
27.874161 103.699 -140.0588
28.076149 103.661 -140.4164
28.279600 103.623 -140.7596
28.484526 103.586 -141.0922
28.690937 103.555 -141.4174
28.898843 103.533 -141.7379
29.108256 103.523 -142.0552
29.319186 103.526 -142.3700
29.531645 103.544 -142.6814
29.745644 103.578 -142.9881
29.961193 103.626 -143.2876
30.178304 103.686 -143.5772
30.396989 103.756 -143.8546
30.617258 103.832 -144.1177
30.839123 103.907 -144.3652
31.062596 103.979 -144.5969
31.287688 104.041 -144.8132
31.514412 104.089 -145.0152
31.742778 104.119 -145.2040
31.972800 104.126 -145.3811
32.204488 104.108 -145.5474
32.437855 104.063 -145.7041
32.672913 103.990 -145.8519
32.909674 103.889 -145.9923
33.148151 103.762 -146.1267
33.388356 103.611 -146.2569
33.630302 103.438 -146.3851
33.874001 103.248 -146.5133
34.119466 103.045 -146.6429
34.366710 102.832 -146.7745
34.615745 102.616 -146.9082
34.866585 102.400 -147.0430
35.119243 102.190 -147.1777
35.373731 101.990 -147.3110
35.630064 101.806 -147.4415
35.888254 101.640 -147.5683
36.148315 101.497 -147.6906
36.410261 101.379 -147.8075
36.674104 101.287 -147.9182
36.939860 101.221 -148.0218
37.207542 101.182 -148.1178
37.477163 101.169 -148.2063
37.748738 101.181 -148.2886
38.022281 101.215 -148.3670
38.297806 101.272 -148.4452
38.575327 101.348 -148.5273
38.854860 101.443 -148.6176
39.136419 101.556 -148.7202
39.420017 101.686 -148.8385
39.705671 101.833 -148.9750
39.993395 101.997 -149.1318
40.283203 102.176 -149.3103
40.575112 102.372 -149.5109
40.869136 102.582 -149.7329
41.165290 102.805 -149.9743
41.463591 103.039 -150.2313
41.764053 103.281 -150.4990
42.066693 103.529 -150.7722
42.371525 103.779 -151.0462
42.678567 104.030 -151.3181
42.987834 104.277 -151.5870
43.299341 104.519 -151.8541
43.613106 104.752 -152.1221
43.929145 104.975 -152.3944
44.247473 105.185 -152.6734
44.568109 105.381 -152.9609
44.891068 105.561 -153.2570
45.216367 105.723 -153.5610
45.544023 105.869 -153.8714
45.874054 105.997 -154.1872
46.206476 106.106 -154.5076
46.541307 106.198 -154.8322
46.878565 106.272 -155.1613
47.218266 106.329 -155.4950
47.560429 106.369 -155.8329
47.905072 106.392 -156.1737
48.252212 106.401 -156.5149
48.601867 106.396 -156.8532
48.954056 106.379 -157.1845
49.308798 106.351 -157.5047
49.666109 106.315 -157.8103
50.026010 106.273 -158.0991
50.388520 106.227 -158.3700
50.753656 106.178 -158.6236
51.121437 106.129 -158.8618
51.491884 106.081 -159.0875
51.865016 106.036 -159.3041
52.240851 105.994 -159.5149
52.619410 105.957 -159.7229
53.000712 105.924 -159.9300
53.384777 105.896 -160.1372
53.771625 105.872 -160.3442
54.161276 105.852 -160.5502
54.553751 105.835 -160.7538
54.949070 105.820 -160.9540
55.347254 105.806 -161.1504
55.748323 105.792 -161.3434
56.152298 105.778 -161.5339
56.559201 105.764 -161.7236
56.969052 105.748 -161.9145
57.381873 105.731 -162.1086
57.797686 105.713 -162.3079
58.216512 105.693 -162.5139
58.638373 105.673 -162.7277
59.063291 105.651 -162.9496
59.491288 105.629 -163.1796
59.922386 105.607 -163.4173
60.356608 105.584 -163.6624
60.793977 105.561 -163.9142
61.234515 105.539 -164.1721
61.678246 105.517 -164.4357
62.125192 105.497 -164.7054
62.575377 105.479 -164.9823
63.028824 105.463 -165.2681
63.485557 105.451 -165.5648
63.945599 105.442 -165.8744
64.408975 105.437 -166.1988
64.875709 105.435 -166.5394
65.345825 105.437 -166.8971
65.819348 105.443 -167.2719
66.296302 105.451 -167.6633
66.776713 105.463 -168.0704
67.260604 105.477 -168.4922
67.748002 105.494 -168.9278
68.238932 105.513 -169.3766
68.733420 105.534 -169.8380
69.231490 105.556 -170.3114
69.733170 105.580 -170.7969
70.238485 105.605 -171.2943
70.747463 105.630 -171.8035
71.260128 105.656 -172.3244
71.776508 105.681 -172.8563
72.296630 105.706 -173.3990
72.820521 105.732 -173.9525
73.348209 105.756 -174.5169
73.879720 105.780 -175.0920
74.415083 105.803 -175.6774
74.954326 105.825 -176.2723
75.497475 105.845 -176.8759
76.044561 105.863 -177.4874
76.595612 105.878 -178.1060
77.150655 105.890 -178.7309
77.709720 105.898 -179.3607
78.272837 105.901 -179.9945
78.840034 105.900 179.3691
79.411342 105.893 178.7309
79.986789 105.882 178.0917
80.566406 105.865 177.4522
81.150224 105.843 176.8129
81.738272 105.816 176.1740
82.330581 105.785 175.5351
82.927182 105.751 174.8959
83.528107 105.715 174.2558
84.133386 105.679 173.6145
84.743051 105.645 172.9721
85.357134 105.615 172.3287
85.975667 105.592 171.6848
86.598682 105.579 171.0404
87.226212 105.580 170.3955
87.858289 105.597 169.7502
88.494946 105.634 169.1049
89.136217 105.691 168.4604
89.782135 105.771 167.8173
90.432733 105.871 167.1764
91.088046 105.992 166.5381
91.748108 106.128 165.9025
92.412952 106.276 165.2699
93.082615 106.432 164.6406
93.757130 106.588 164.0151
94.436533 106.742 163.3946
95.120859 106.886 162.7797
95.810144 107.019 162.1713
96.504423 107.135 161.5698
97.203734 107.234 160.9753
97.908112 107.315 160.3880
98.617595 107.376 159.8078
99.332219 107.419 159.2347
100.052021 107.446 158.6688
100.777039 107.458 158.1101
101.507311 107.457 157.5587
102.242875 107.445 157.0141
102.983769 107.425 156.4761
103.730032 107.397 155.9443
104.481702 107.363 155.4185
105.238820 107.322 154.8990
106.001424 107.274 154.3863
106.769554 107.218 153.8814
107.543250 107.153 153.3859
108.322553 107.078 152.9012
109.107503 106.990 152.4291
109.898141 106.888 151.9706
110.694508 106.773 151.5267
111.496646 106.643 151.0977
112.304596 106.499 150.6832
113.118402 106.341 150.2829
113.938104 106.171 149.8960
114.763747 105.991 149.5219
115.595372 105.803 149.1602
116.433024 105.608 148.8103
117.276746 105.409 148.4724
118.126581 105.208 148.1467
118.982575 105.006 147.8337
119.844772 104.805 147.5340
120.713217 104.604 147.2484
121.587954 104.405 146.9779
122.469031 104.207 146.7233
123.356492 104.009 146.4854
124.250384 103.811 146.2650
125.150753 103.611 146.0630
126.057647 103.408 145.8800
126.971113 103.200 145.7169
127.891198 102.986 145.5745
128.817950 102.766 145.4535
129.751418 102.539 145.3548
130.691651 102.305 145.2789
131.638696 102.064 145.2260
132.592604 101.817 145.1962
133.553425 101.566 145.1892
134.521208 101.314 145.2045
135.496004 101.062 145.2416
136.477864 100.816 145.3007
137.466839 100.578 145.3818
138.462981 100.351 145.4857
139.466340 100.140 145.6136
140.476971 99.946 145.7669
141.494925 99.772 145.9473
142.520256 99.618 146.1566
143.553016 99.484 146.3962
144.593260 99.366 146.6675
145.641043 99.262 146.9708
146.696418 99.170 147.3062
147.759441 99.083 147.6729
148.830166 99.000 148.0700
149.908651 98.917 148.4960
150.994951 98.831 148.9493
152.089123 98.742 149.4283
153.191223 98.649 149.9317
154.301310 98.552 150.4581
155.419441 98.452 151.0066
156.545674 98.353 151.5760
157.680069 98.255 152.1654
158.822683 98.160 152.7736
159.973578 98.070 153.3988
161.132813 97.987 154.0395
162.300447 97.911 154.6936
163.476543 97.844 155.3594
164.661162 97.786 156.0348
165.854364 97.737 156.7179
167.056213 97.697 157.4070
168.266772 97.667 158.1001
169.486102 97.647 158.7954
170.714268 97.637 159.4909
171.951334 97.637 160.1848
173.197364 97.648 160.8751
174.452424 97.668 161.5596
175.716578 97.697 162.2363
176.989893 97.735 162.9031
178.272434 97.781 163.5577
179.564270 97.832 164.1983
180.865467 97.889 164.8228
182.176092 97.948 165.4295
183.496216 98.010 166.0170
184.825905 98.073 166.5839
186.165229 98.137 167.1289
187.514259 98.201 167.6509
188.873065 98.264 168.1491
190.241717 98.329 168.6224
191.620287 98.394 169.0703
193.008847 98.460 169.4921
194.407468 98.527 169.8878
195.816225 98.595 170.2573
197.235190 98.664 170.6008
198.664438 98.735 170.9185
200.104042 98.805 171.2107
201.554078 98.874 171.4778
203.014622 98.942 171.7200
204.485750 99.008 171.9379
205.967538 99.071 172.1320
207.460064 99.130 172.3027
208.963405 99.185 172.4510
210.477640 99.236 172.5777
212.002848 99.283 172.6837
213.539108 99.327 172.7702
215.086500 99.367 172.8386
216.645105 99.403 172.8900
218.215005 99.437 172.9260
219.796281 99.467 172.9478
221.389015 99.493 172.9567
222.993292 99.516 172.9537
224.609193 99.534 172.9400
226.236804 99.546 172.9164
227.876209 99.553 172.8839
229.527494 99.553 172.8433
231.190745 99.547 172.7951
232.866048 99.534 172.7399
234.553491 99.516 172.6783
236.253163 99.491 172.6106
237.965150 99.462 172.5371
239.689544 99.429 172.4581
241.426433 99.394 172.3738
243.175909 99.357 172.2842
244.938062 99.319 172.1896
246.712984 99.281 172.0900
248.500768 99.245 171.9856
250.301507 99.210 171.8766
252.115295 99.178 171.7632
253.942226 99.149 171.6458
255.782396 99.124 171.5244
257.635901 99.103 171.3993
259.502837 99.087 171.2707
261.383301 99.076 171.1387
263.277392 99.070 171.0032
265.185209 99.069 170.8644
267.106850 99.073 170.7224
269.042417 99.082 170.5776
270.992009 99.096 170.4307
272.955729 99.113 170.2825
274.933678 99.134 170.1338
276.925961 99.158 169.9857
278.932681 99.184 169.8390
280.953942 99.212 169.6942
282.989850 99.241 169.5518
285.040511 99.273 169.4115
287.106032 99.307 169.2731
289.186521 99.344 169.1359
291.282086 99.384 168.9989
293.392836 99.429 168.8614
295.518881 99.479 168.7225
297.660333 99.534 168.5816
299.817302 99.593 168.4382
301.989902 99.656 168.2922
304.178245 99.722 168.1439
306.382446 99.788 167.9938
308.602620 99.853 167.8428
310.838882 99.915 167.6920
313.091348 99.972 167.5428
315.360137 100.023 167.3965
317.645367 100.067 167.2545
319.947156 100.103 167.1180
322.265625 100.129 166.9882
324.600895 100.145 166.8655
326.953086 100.151 166.7502
329.322323 100.147 166.6421
331.708729 100.131 166.5409
334.112427 100.105 166.4461
336.533543 100.068 166.3572
338.972204 100.021 166.2739
341.428536 99.964 166.1960
343.902668 99.899 166.1238
346.394729 99.826 166.0576
348.904848 99.747 165.9980
351.433156 99.664 165.9460
353.979786 99.579 165.9023
356.544869 99.495 165.8673
359.128540 99.414 165.8412
361.730934 99.339 165.8240
364.352185 99.273 165.8150
366.992431 99.219 165.8133
369.651810 99.180 165.8180
372.330459 99.157 165.8280
375.028519 99.152 165.8427
377.746130 99.166 165.8616
380.483434 99.197 165.8845
383.240574 99.246 165.9115
386.017693 99.309 165.9429
388.814937 99.384 165.9789
391.632450 99.470 166.0200
394.470380 99.562 166.0662
397.328875 99.659 166.1173
400.208084 99.758 166.1730
403.108157 99.857 166.2325
406.029245 99.956 166.2944
408.971500 100.054 166.3575
411.935076 100.150 166.4198
414.920127 100.244 166.4796
417.926810 100.338 166.5351
420.955280 100.432 166.5846
424.005695 100.526 166.6266
427.078215 100.621 166.6600
430.173000 100.717 166.6839
433.290211 100.815 166.6977
436.430010 100.915 166.7011
439.592562 101.014 166.6943
442.778031 101.113 166.6776
445.986583 101.210 166.6513
449.218386 101.302 166.6160
452.473607 101.389 166.5720
455.752418 101.468 166.5195
459.054987 101.539 166.4584
462.381489 101.600 166.3882
465.732096 101.650 166.3084
469.106983 101.690 166.2181
472.506325 101.718 166.1168
475.930301 101.736 166.0038
479.379088 101.744 165.8789
482.852867 101.744 165.7422
486.351817 101.735 165.5942
489.876123 101.720 165.4356
493.425968 101.698 165.2673
497.001536 101.670 165.0906
500.603014 101.637 164.9067
504.230589 101.599 164.7167
507.884452 101.557 164.5219
511.564792 101.509 164.3237
515.271802 101.457 164.1232
519.005673 101.401 163.9219
522.766602 101.342 163.7212
526.554785 101.280 163.5225
530.370418 101.217 163.3271
534.213700 101.156 163.1365
538.084833 101.098 162.9516
541.984018 101.045 162.7735
545.911457 100.999 162.6028
549.867357 100.960 162.4402
553.851922 100.930 162.2859
557.865362 100.907 162.1400
561.907884 100.890 162.0024
565.979700 100.879 161.8729
570.081022 100.872 161.7511
574.212064 100.866 161.6368
578.373042 100.860 161.5297
582.564171 100.853 161.4296
586.785671 100.841 161.3365
591.037762 100.825 161.2504
595.320665 100.803 161.1710
599.634604 100.775 161.0983
603.979804 100.740 161.0318
608.356491 100.698 160.9710
612.764893 100.651 160.9152
617.205240 100.597 160.8635
621.677763 100.539 160.8149
626.182696 100.479 160.7684
630.720274 100.416 160.7232
635.290733 100.354 160.6783
639.894312 100.294 160.6329
644.531250 100.238 160.5864
649.201789 100.187 160.5385
653.906173 100.143 160.4890
658.644647 100.105 160.4381
663.417457 100.076 160.3860
668.224854 100.052 160.3334
673.067086 100.034 160.2806
677.944408 100.021 160.2284
682.857073 100.010 160.1773
687.805336 99.999 160.1276
692.789457 99.989 160.0795
697.809695 99.976 160.0330
702.866312 99.960 159.9878
707.959571 99.939 159.9433
713.089738 99.915 159.8992
718.257080 99.885 159.8552
723.461867 99.850 159.8114
728.704370 99.810 159.7681
733.984862 99.766 159.7260
739.303619 99.718 159.6857
744.660918 99.667 159.6481
750.057038 99.614 159.6142
755.492260 99.558 159.5847
760.966869 99.501 159.5602
766.481148 99.443 159.5413
772.035387 99.384 159.5281
777.629873 99.322 159.5208
783.264900 99.259 159.5192
788.940760 99.192 159.5230
794.657750 99.122 159.5320
800.416168 99.047 159.5457
806.216313 98.968 159.5636
812.058489 98.882 159.5853
817.943000 98.790 159.6102
823.870152 98.693 159.6381
829.840255 98.590 159.6685
835.853619 98.482 159.7009
841.910559 98.369 159.7347
848.011390 98.253 159.7696
854.156430 98.135 159.8046
860.346000 98.016 159.8392
866.580422 97.896 159.8724
872.860020 97.778 159.9034
879.185124 97.662 159.9315
885.556062 97.549 159.9561
891.973166 97.440 159.9771
898.436771 97.336 159.9943
904.947215 97.238 160.0080
911.504835 97.146 160.0187
918.109975 97.062 160.0270
924.762978 96.986 160.0333
931.464192 96.918 160.0378
938.213966 96.859 160.0411
945.012651 96.806 160.0438
951.860602 96.761 160.0474
958.758176 96.721 160.0548
965.705733 96.686 160.0706
972.703635 96.654 160.1014
979.752246 96.625 160.1559
986.851935 96.597 160.2442
994.003071 96.571 160.3773
1001.206027 96.548 160.5662
1008.461179 96.530 160.8207
1015.768904 96.517 161.1497
1023.129584 96.515 161.5596
1030.543603 96.526 162.0541
1038.011347 96.553 162.6335
1045.533205 96.602 163.2933
1053.109569 96.675 164.0230
1060.740836 96.776 164.8047
1068.427401 96.906 165.6124
1076.169666 97.065 166.4123
1083.968035 97.251 167.1650
1091.822915 97.458 167.8290
1099.734713 97.681 168.3662
1107.703844 97.911 168.7467
1115.730723 98.140 168.9532
1123.815768 98.361 168.9830
1131.959400 98.567 168.8470
1140.162045 98.752 168.5679
1148.424129 98.914 168.1755
1156.746083 99.052 167.7029
1165.128342 99.167 167.1824
1173.571343 99.260 166.6431
1182.075524 99.334 166.1089
1190.641331 99.393 165.5981
1199.269209 99.441 165.1234
1207.959608 99.481 164.6925
1216.712981 99.515 164.3091
1225.529785 99.546 163.9739
1234.410479 99.575 163.6849
1243.355526 99.603 163.4392
1252.365393 99.631 163.2326
1261.440549 99.658 163.0608
1270.581467 99.683 162.9192
1279.788624 99.708 162.8037
1289.062500 99.730 162.7103
1298.403578 99.751 162.6353
1307.812346 99.769 162.5757
1317.289293 99.786 162.5287
1326.834914 99.802 162.4918
1336.449707 99.816 162.4628
1346.134173 99.830 162.4399
1355.888816 99.842 162.4216
1365.714145 99.854 162.4067
1375.610673 99.866 162.3939
1385.578915 99.876 162.3826
1395.619391 99.885 162.3717
1405.732624 99.892 162.3607
1415.919142 99.897 162.3486
1426.179476 99.901 162.3347
1436.514160 99.904 162.3182
1446.923734 99.905 162.2982
1457.408740 99.907 162.2741
1467.969724 99.910 162.2454
1478.607238 99.914 162.2119
1489.321836 99.921 162.1736
1500.114076 99.931 162.1305
1510.984521 99.943 162.0832
1521.933737 99.959 162.0322
1532.962297 99.979 161.9780
1544.070773 100.001 161.9211
1555.259747 100.026 161.8622
1566.529800 100.052 161.8016
1577.881521 100.079 161.7394
1589.315501 100.107 161.6758
1600.832336 100.135 161.6108
1612.432627 100.161 161.5441
1624.116978 100.186 161.4756
1635.886000 100.210 161.4049
1647.740304 100.232 161.3317
1659.680509 100.253 161.2559
1671.707238 100.272 161.1772
1683.821118 100.290 161.0957
1696.022780 100.307 161.0114
1708.312860 100.324 160.9245
1720.692000 100.340 160.8355
1733.160843 100.355 160.7447
1745.720041 100.371 160.6527
1758.370248 100.386 160.5601
1771.112124 100.400 160.4676
1783.946332 100.413 160.3758
1796.873543 100.424 160.2856
1809.894429 100.433 160.1977
1823.009670 100.439 160.1129
1836.219950 100.441 160.0320
1849.525956 100.440 159.9558
1862.928384 100.436 159.8851
1876.427931 100.427 159.8204
1890.025301 100.416 159.7626
1903.721204 100.401 159.7124
1917.516352 100.383 159.6704
1931.411466 100.363 159.6374
1945.407270 100.338 159.6140
1959.504493 100.311 159.6010
1973.703870 100.279 159.5988
1988.006142 100.243 159.6079
2002.412054 100.201 159.6288
2016.922357 100.153 159.6620
2031.537808 100.098 159.7081
2046.259169 100.035 159.7681
2061.087206 99.963 159.8430
2076.022694 99.883 159.9338
2091.066410 99.793 160.0421
2106.219139 99.695 160.1688
2121.481671 99.588 160.3152
2136.854802 99.474 160.4824
2152.339333 99.353 160.6711
2167.936071 99.228 160.8818
2183.645829 99.100 161.1150
2199.469427 98.970 161.3706
2215.407689 98.840 161.6485
2231.461446 98.712 161.9483
2247.631536 98.587 162.2693
2263.918800 98.466 162.6111
2280.324089 98.349 162.9728
2296.848258 98.238 163.3540
2313.492167 98.132 163.7542
2330.256685 98.032 164.1729
2347.142685 97.937 164.6098
2364.151049 97.846 165.0646
2381.282662 97.761 165.5369
2398.538418 97.680 166.0266
2415.919216 97.604 166.5333
2433.425962 97.533 167.0566
2451.059570 97.466 167.5963
2468.820958 97.405 168.1515
2486.711052 97.349 168.7216
2504.730786 97.300 169.3056
2522.881098 97.258 169.9022
2541.162934 97.224 170.5101
2559.577248 97.199 171.1274
2578.125000 97.184 171.7521
2596.807157 97.180 172.3823
2615.624692 97.189 173.0153
2634.578586 97.211 173.6489
2653.669829 97.247 174.2802
2672.899414 97.298 174.9067
2692.268345 97.365 175.5254
2711.777632 97.445 176.1333
2731.428290 97.540 176.7273
2751.221345 97.647 177.3045
2771.157829 97.766 177.8619
2791.238781 97.892 178.3972
2811.465248 98.025 178.9084
2831.838284 98.160 179.3950
2852.358952 98.297 179.8567
2873.028321 98.431 -179.7053
2893.847468 98.561 -179.2894
2914.817480 98.685 -178.8928
2935.939449 98.800 -178.5125
2957.214476 98.906 -178.1451
2978.643672 99.001 -177.7872
3000.228152 99.086 -177.4354
3021.969041 99.161 -177.0866
3043.867475 99.224 -176.7379
3065.924593 99.278 -176.3871
3088.141547 99.323 -176.0320
3110.519493 99.360 -175.6712
3133.059600 99.389 -175.3033
3155.763041 99.413 -174.9273
3178.631001 99.432 -174.5426
3201.664672 99.448 -174.1488
3224.865254 99.461 -173.7452
3248.233957 99.472 -173.3318
3271.771999 99.482 -172.9081
3295.480608 99.492 -172.4739
3319.361019 99.503 -172.0289
3343.414477 99.514 -171.5731
3367.642236 99.528 -171.1062
3392.045560 99.544 -170.6282
3416.625721 99.562 -170.1390
3441.383999 99.584 -169.6384
3466.321686 99.611 -169.1262
3491.440082 99.643 -168.6025
3516.740496 99.681 -168.0672
3542.224247 99.727 -167.5209
3567.892664 99.781 -166.9645
3593.747085 99.845 -166.3997
3619.788858 99.919 -165.8288
3646.019340 100.004 -165.2546
3672.439900 100.102 -164.6806
3699.051913 100.211 -164.1103
3725.856768 100.333 -163.5477
3752.855862 100.467 -162.9967
3780.050603 100.612 -162.4615
3807.442408 100.769 -161.9461
3835.032705 100.936 -161.4547
3862.822933 101.113 -160.9910
3890.814540 101.298 -160.5586
3919.008986 101.492 -160.1606
3947.407741 101.692 -159.7999
3976.012284 101.899 -159.4789
4004.824108 102.111 -159.1999
4033.844715 102.327 -158.9651
4063.075616 102.546 -158.7764
4092.518337 102.769 -158.6356
4122.174412 102.993 -158.5443
4152.045387 103.220 -158.5038
4182.132820 103.447 -158.5151
4212.438278 103.675 -158.5795
4242.963342 103.904 -158.6979
4273.709604 104.133 -158.8720
4304.678665 104.362 -159.1042
4335.872141 104.590 -159.3980
4367.291658 104.818 -159.7580
4398.938854 105.045 -160.1902
4430.815378 105.270 -160.7018
4462.922893 105.491 -161.3004
4495.263072 105.708 -161.9940
4527.837601 105.919 -162.7905
4560.648179 106.121 -163.6965
4593.696515 106.314 -164.7174
4626.984334 106.494 -165.8563
4660.513370 106.660 -167.1140
4694.285371 106.809 -168.4882
4728.302098 106.940 -169.9739
4762.565324 107.050 -171.5629
4797.076835 107.138 -173.2438
4831.838432 107.202 -175.0029
4866.851925 107.240 -176.8236
4902.119140 107.253 -178.6874
4937.641916 107.240 179.4260
4973.422105 107.201 177.5376
5009.461572 107.136 175.6693
5045.762195 107.047 173.8427
5082.325868 106.936 172.0790
5119.154496 106.803 170.3979
5156.250000 106.651 168.8178
5193.614313 106.482 167.3549
5231.249383 106.300 166.0229
5269.157173 106.106 164.8328
5307.339658 105.904 163.7925
5345.798829 105.696 162.9068
5384.536691 105.486 162.1771
5423.555263 105.278 161.6017
5462.856580 105.073 161.1753
5502.442691 104.877 160.8893
5542.315659 104.692 160.7319
5582.477563 104.523 160.6873
5622.930497 104.372 160.7369
5663.676569 104.243 160.8585
5704.717904 104.140 161.0273
5746.056642 104.064 161.2169
5787.694937 104.016 161.3994
5829.634960 103.998 161.5469
5871.878898 104.009 161.6329
5914.428953 104.046 161.6328
5957.287343 104.106 161.5253
6000.456303 104.186 161.2927
6043.938083 104.279 160.9215
6087.734950 104.381 160.4022
6131.849187 104.486 159.7299
6176.283094 104.588 158.9032
6221.038987 104.682 157.9246
6266.119200 104.762 156.7998
6311.526083 104.824 155.5375
6357.262002 104.863 154.1488
6403.329344 104.876 152.6475
6449.730508 104.860 151.0490
6496.467914 104.812 149.3710
6543.543998 104.731 147.6327
6590.961215 104.615 145.8547
6638.722037 104.463 144.0592
6686.828954 104.274 142.2691
6735.284473 104.051 140.5082
6784.091120 103.792 138.8006
6833.251441 103.499 137.1702
6882.767998 103.174 135.6406
6932.643372 102.819 134.2347
6982.880164 102.436 132.9745
7033.480992 102.029 131.8806
7084.448495 101.600 130.9726
7135.785329 101.152 130.2690
7187.494171 100.689 129.7870
7239.577717 100.215 129.5426
7292.038681 99.734 129.5501
7344.879799 99.249 129.8215
7398.103826 98.767 130.3654
7451.713536 98.290 131.1854
7505.711724 97.826 132.2774
7560.101205 97.380 133.6271
7614.884815 96.957 135.2070
7670.065409 96.564 136.9735
7725.645865 96.205 138.8659
7781.629080 95.885 140.8078
7838.017972 95.607 142.7110
7894.815481 95.370 144.4832
7952.024569 95.173 146.0377
8009.648217 95.009 147.3048
8067.689429 94.870 148.2417
8126.151233 94.747 148.8422
8185.036674 94.627 149.1461
8244.348824 94.500 149.2504
8304.090774 94.359 149.3279
8364.265639 94.199 149.6622
8424.876556 94.026 150.7151
8485.926684 93.850 153.2560
8547.419207 93.692 158.5905
8609.357330 93.579 168.7507
8671.744282 93.539 -174.5536
8734.583316 93.596 -154.2836
8797.877707 93.757 -137.9129
8861.630756 94.014 -128.1874
8925.845785 94.349 -123.3728
8990.526143 94.734 -121.5150
9055.675202 95.143 -121.3931
9121.296357 95.553 -122.3098
9187.393031 95.948 -123.8613
9253.968668 96.315 -125.8048
9321.026740 96.648 -127.9898
9388.570742 96.942 -130.3204
9456.604196 97.193 -132.7356
9525.130648 97.402 -135.1959
9594.153671 97.568 -137.6763
9663.676863 97.689 -140.1605
9733.703850 97.766 -142.6368
9804.238280 97.798 -145.0954
9875.283832 97.786 -147.5265
9946.844210 97.730 -149.9189
10018.923143 97.631 -152.2598
10091.524390 97.490 -154.5347
10164.651736 97.309 -156.7285
10238.308993 97.092 -158.8261
10312.500000 96.842 -160.8137
10387.228626 96.563 -162.6798
10462.498767 96.258 -164.4157
10538.314345 95.932 -166.0157
10614.679315 95.589 -167.4763
10691.597657 95.232 -168.7959
10769.073381 94.862 -169.9737
10847.110526 94.483 -171.0092
10925.713161 94.094 -171.9018
11004.885382 93.697 -172.6507
11084.631318 93.291 -173.2556
11164.955126 92.877 -173.7171
11245.860993 92.456 -174.0384
11327.353138 92.027 -174.2262
11409.435808 91.593 -174.2918
11492.113283 91.154 -174.2527
11575.389873 90.714 -174.1336
11659.269920 90.274 -173.9664
11743.757796 89.840 -173.7898
11828.857906 89.412 -173.6476
11914.574686 88.994 -173.5851
12000.912606 88.585 -173.6451
12087.876166 88.185 -173.8633
12175.469900 87.790 -174.2636
12263.698373 87.394 -174.8543
12352.566187 86.991 -175.6259
12442.077974 86.571 -176.5489
12532.238400 86.125 -177.5729
12623.052165 85.644 -178.6257
12714.524005 85.122 -179.6113
12806.658687 84.551 179.5924
12899.461015 83.930 179.1393
12992.935827 83.258 179.2230
13087.087996 82.540 -179.9097
13181.922430 81.785 -177.9454
13277.444074 81.008 -174.4981
13373.657907 80.232 -169.1505
13470.568945 79.484 -161.6160
13568.182241 78.800 -152.0877
13666.502883 78.213 -141.5670
13765.535996 77.752 -131.6022
13865.286744 77.431 -123.4278
13965.760328 77.241 -117.4635
14066.961984 77.159 -113.5269
14168.896989 77.150 -111.2177
14271.570658 77.175 -110.1336
14374.988342 77.201 -109.9354
14479.155433 77.202 -110.3468
14584.077362 77.157 -111.1362
14689.759598 77.055 -112.0978
14796.207652 76.891 -113.0368
14903.427072 76.665 -113.7599
15011.423448 76.385 -114.0727
15120.202410 76.067 -113.7878
15229.769630 75.735 -112.7489
15340.130819 75.417 -110.8762
15451.291730 75.149 -108.2305
15563.258160 74.960 -105.0655
15676.035944 74.872 -101.8152
15789.630962 74.890 -98.9847
15904.049137 74.998 -96.9965
16019.296433 75.171 -96.0902
16135.378859 75.374 -96.3205
16252.302465 75.577 -97.6152
16370.073348 75.752 -99.8408
16488.697648 75.882 -102.8483
16608.181548 75.952 -106.4969
16728.531278 75.956 -110.6637
16849.753112 75.889 -115.2446
16971.853368 75.751 -120.1530
17094.838414 75.544 -125.3165
17218.714660 75.273 -130.6756
17343.488565 74.949 -136.1811
17469.166632 74.584 -141.7940
17595.755415 74.200 -147.4845
17723.261512 73.823 -153.2330
17851.691571 73.490 -159.0324
17981.052287 73.242 -164.8894
18111.350404 73.119 -170.8248
18242.592715 73.149 -176.8672
18374.786062 73.339 176.9689
18507.937336 73.669 170.7493
18642.053479 74.103 164.9685
18777.141484 74.597 177.6229
18913.208391 75.111 -34.6561
19050.261296 75.612 -40.4441
19188.307342 76.074 -47.1390
19327.353727 76.483 -53.7032
19467.407699 76.827 -59.7470
19608.476560 77.103 -64.9801
19750.567664 77.308 -69.1541
19893.688419 77.443 -72.0636
20037.846286 77.510 -73.5583
