* Measurement data measured by REW V5.31.3
* Source: EXCL: Headset (USB-C to 3.5mm Headphone Jack Adapter), MICROPHONE (Master Volume), 0, volume: 0.170
* Format: 256k Log Swept Sine, 1 sweep at -12.0 dBFS with no timing reference
* Dated: Feb 9, 2025 1:41:49 PM
* REW Settings:
*  C-weighting compensation: Off
*  Target level: 75.0 dB
* Note: ; 
* Measurement: Ouroboros (Golem Mod) L5
* Smoothing: 1/6 octave
* Frequency Step: 96 ppo
* Start Frequency: 20.0 Hz
*
* Freq(Hz) SPL(dB) Phase(degrees)
20.141602 106.185 -115.6112
20.287556 106.192 -115.6901
20.434568 106.199 -115.8033
20.582645 106.205 -115.9573
20.731796 106.205 -116.1592
20.882027 106.198 -116.4162
21.033346 106.181 -116.7347
21.185763 106.151 -117.1193
21.339284 106.108 -117.5723
21.493917 106.050 -118.0931
21.649671 105.977 -118.6784
21.806553 105.888 -119.3218
21.964572 105.786 -120.0142
22.123737 105.672 -120.7445
22.284054 105.548 -121.5001
22.445534 105.416 -122.2675
22.608183 105.280 -123.0333
22.772012 105.143 -123.7853
22.937027 105.009 -124.5130
23.103238 104.882 -125.2088
23.270654 104.765 -125.8686
23.439282 104.660 -126.4917
23.609133 104.571 -127.0809
23.780215 104.497 -127.6420
23.952536 104.441 -128.1824
24.126106 104.400 -128.7106
24.300934 104.374 -129.2344
24.477028 104.359 -129.7599
24.654399 104.353 -130.2910
24.833055 104.353 -130.8291
25.013005 104.356 -131.3727
25.194260 104.361 -131.9188
25.376828 104.364 -132.4635
25.560719 104.366 -133.0030
25.745942 104.367 -133.5348
25.932508 104.368 -134.0588
26.120426 104.368 -134.5772
26.309705 104.369 -135.0950
26.500356 104.371 -135.6190
26.692388 104.374 -136.1561
26.885812 104.377 -136.7128
27.080638 104.379 -137.2929
27.276876 104.378 -137.8966
27.474535 104.371 -138.5203
27.673627 104.359 -139.1563
27.874161 104.339 -139.7938
28.076149 104.313 -140.4204
28.279600 104.282 -141.0233
28.484526 104.249 -141.5913
28.690937 104.217 -142.1160
28.898843 104.191 -142.5930
29.108256 104.175 -143.0222
29.319186 104.174 -143.4081
29.531645 104.189 -143.7584
29.745644 104.223 -144.0832
29.961193 104.276 -144.3935
30.178304 104.344 -144.6992
30.396989 104.425 -145.0079
30.617258 104.513 -145.3241
30.839123 104.601 -145.6487
31.062596 104.685 -145.9792
31.287688 104.758 -146.3106
31.514412 104.814 -146.6360
31.742778 104.850 -146.9479
31.972800 104.861 -147.2392
32.204488 104.846 -147.5040
32.437855 104.804 -147.7385
32.672913 104.732 -147.9406
32.909674 104.634 -148.1107
33.148151 104.509 -148.2509
33.388356 104.361 -148.3650
33.630302 104.193 -148.4577
33.874001 104.007 -148.5342
34.119466 103.809 -148.5998
34.366710 103.601 -148.6600
34.615745 103.389 -148.7194
34.866585 103.176 -148.7827
35.119243 102.967 -148.8538
35.373731 102.766 -148.9361
35.630064 102.575 -149.0323
35.888254 102.397 -149.1444
36.148315 102.236 -149.2737
36.410261 102.092 -149.4209
36.674104 101.969 -149.5858
36.939860 101.866 -149.7677
37.207542 101.786 -149.9657
37.477163 101.730 -150.1782
37.748738 101.697 -150.4034
38.022281 101.689 -150.6391
38.297806 101.705 -150.8825
38.575327 101.744 -151.1305
38.854860 101.808 -151.3793
39.136419 101.894 -151.6250
39.420017 102.002 -151.8636
39.705671 102.131 -152.0915
39.993395 102.279 -152.3056
40.283203 102.444 -152.5040
40.575112 102.625 -152.6859
40.869136 102.820 -152.8520
41.165290 103.027 -153.0040
41.463591 103.243 -153.1452
41.764053 103.466 -153.2798
42.066693 103.694 -153.4130
42.371525 103.926 -153.5504
42.678567 104.158 -153.6975
42.987834 104.389 -153.8597
43.299341 104.616 -154.0409
43.613106 104.838 -154.2436
43.929145 105.053 -154.4683
44.247473 105.258 -154.7134
44.568109 105.452 -154.9757
44.891068 105.633 -155.2511
45.216367 105.800 -155.5351
45.544023 105.952 -155.8239
45.874054 106.087 -156.1150
46.206476 106.204 -156.4072
46.541307 106.302 -156.7007
46.878565 106.381 -156.9965
47.218266 106.442 -157.2959
47.560429 106.483 -157.5997
47.905072 106.507 -157.9085
48.252212 106.514 -158.2214
48.601867 106.506 -158.5372
48.954056 106.485 -158.8538
49.308798 106.454 -159.1686
49.666109 106.413 -159.4792
50.026010 106.366 -159.7830
50.388520 106.314 -160.0783
50.753656 106.259 -160.3637
51.121437 106.202 -160.6387
51.491884 106.146 -160.9033
51.865016 106.091 -161.1577
52.240851 106.040 -161.4020
52.619410 105.991 -161.6360
53.000712 105.947 -161.8590
53.384777 105.908 -162.0703
53.771625 105.873 -162.2691
54.161276 105.841 -162.4547
54.553751 105.813 -162.6268
54.949070 105.788 -162.7855
55.347254 105.763 -162.9315
55.748323 105.740 -163.0661
56.152298 105.716 -163.1914
56.559201 105.691 -163.3099
56.969052 105.666 -163.4243
57.381873 105.639 -163.5373
57.797686 105.612 -163.6512
58.216512 105.583 -163.7683
58.638373 105.555 -163.8903
59.063291 105.528 -164.0190
59.491288 105.501 -164.1555
59.922386 105.476 -164.3009
60.356608 105.453 -164.4557
60.793977 105.433 -164.6202
61.234515 105.415 -164.7947
61.678246 105.400 -164.9799
62.125192 105.388 -165.1763
62.575377 105.379 -165.3845
63.028824 105.373 -165.6053
63.485557 105.370 -165.8393
63.945599 105.370 -166.0877
64.408975 105.374 -166.3516
64.875709 105.380 -166.6324
65.345825 105.391 -166.9315
65.819348 105.405 -167.2499
66.296302 105.423 -167.5883
66.776713 105.443 -167.9469
67.260604 105.468 -168.3254
67.748002 105.494 -168.7236
68.238932 105.524 -169.1410
68.733420 105.555 -169.5775
69.231490 105.587 -170.0327
69.733170 105.621 -170.5062
70.238485 105.654 -170.9974
70.747463 105.688 -171.5050
71.260128 105.721 -172.0281
71.776508 105.755 -172.5654
72.296630 105.787 -173.1162
72.820521 105.819 -173.6798
73.348209 105.850 -174.2562
73.879720 105.880 -174.8449
74.415083 105.908 -175.4458
74.954326 105.935 -176.0582
75.497475 105.959 -176.6812
76.044561 105.982 -177.3138
76.595612 106.001 -177.9547
77.150655 106.017 -178.6029
77.709720 106.029 -179.2572
78.272837 106.037 -179.9167
78.840034 106.040 179.4197
79.411342 106.037 178.7526
79.986789 106.030 178.0828
80.566406 106.017 177.4110
81.150224 105.998 176.7377
81.738272 105.974 176.0634
82.330581 105.945 175.3887
82.927182 105.913 174.7139
83.528107 105.877 174.0395
84.133386 105.840 173.3659
84.743051 105.804 172.6936
85.357134 105.771 172.0232
85.975667 105.745 171.3553
86.598682 105.728 170.6907
87.226212 105.724 170.0297
87.858289 105.737 169.3727
88.494946 105.769 168.7199
89.136217 105.822 168.0712
89.782135 105.897 167.4262
90.432733 105.994 166.7848
91.088046 106.111 166.1467
91.748108 106.244 165.5121
92.412952 106.390 164.8814
93.082615 106.543 164.2552
93.757130 106.697 163.6342
94.436533 106.847 163.0195
95.120859 106.989 162.4117
95.810144 107.118 161.8114
96.504423 107.231 161.2191
97.203734 107.326 160.6349
97.908112 107.402 160.0590
98.617595 107.460 159.4913
99.332219 107.499 158.9320
100.052021 107.522 158.3809
100.777039 107.531 157.8380
101.507311 107.527 157.3032
102.242875 107.513 156.7767
102.983769 107.491 156.2581
103.730032 107.461 155.7473
104.481702 107.426 155.2440
105.238820 107.384 154.7481
106.001424 107.335 154.2596
106.769554 107.279 153.7790
107.543250 107.213 153.3068
108.322553 107.137 152.8440
109.107503 107.049 152.3914
109.898141 106.946 151.9497
110.694508 106.830 151.5196
111.496646 106.698 151.1014
112.304596 106.552 150.6951
113.118402 106.392 150.3009
113.938104 106.219 149.9186
114.763747 106.036 149.5483
115.595372 105.845 149.1907
116.433024 105.648 148.8461
117.276746 105.447 148.5155
118.126581 105.245 148.1996
118.982575 105.043 147.8990
119.844772 104.841 147.6139
120.713217 104.642 147.3441
121.587954 104.444 147.0892
122.469031 104.247 146.8488
123.356492 104.051 146.6222
124.250384 103.854 146.4091
125.150753 103.655 146.2094
126.057647 103.451 146.0234
126.971113 103.244 145.8519
127.891198 103.030 145.6961
128.817950 102.809 145.5578
129.751418 102.582 145.4390
130.691651 102.348 145.3422
131.638696 102.107 145.2697
132.592604 101.861 145.2235
133.553425 101.611 145.2051
134.521208 101.360 145.2152
135.496004 101.110 145.2541
136.477864 100.865 145.3215
137.466839 100.628 145.4167
138.462981 100.403 145.5391
139.466340 100.193 145.6880
140.476971 100.000 145.8625
141.494925 99.825 146.0622
142.520256 99.670 146.2866
143.553016 99.533 146.5356
144.593260 99.413 146.8095
145.641043 99.307 147.1088
146.696418 99.212 147.4343
147.759441 99.123 147.7866
148.830166 99.037 148.1666
149.908651 98.952 148.5749
150.994951 98.864 149.0119
152.089123 98.773 149.4774
153.191223 98.678 149.9708
154.301310 98.579 150.4908
155.419441 98.477 151.0358
156.545674 98.374 151.6041
157.680069 98.272 152.1937
158.822683 98.172 152.8029
159.973578 98.077 153.4302
161.132813 97.986 154.0741
162.300447 97.902 154.7340
163.476543 97.825 155.4094
164.661162 97.756 156.1006
165.854364 97.695 156.8082
167.056213 97.643 157.5329
168.266772 97.601 158.2753
169.486102 97.568 159.0356
170.714268 97.545 159.8132
171.951334 97.535 160.6063
173.197364 97.535 161.4119
174.452424 97.548 162.2256
175.716578 97.573 163.0419
176.989893 97.610 163.8539
178.272434 97.657 164.6545
179.564270 97.713 165.4362
180.865467 97.777 166.1917
182.176092 97.847 166.9152
183.496216 97.920 167.6016
184.825905 97.997 168.2476
186.165229 98.074 168.8513
187.514259 98.153 169.4122
188.873065 98.231 169.9311
190.241717 98.310 170.4096
191.620287 98.388 170.8500
193.008847 98.467 171.2549
194.407468 98.546 171.6272
195.816225 98.625 171.9693
197.235190 98.704 172.2836
198.664438 98.783 172.5718
200.104042 98.861 172.8353
201.554078 98.936 173.0748
203.014622 99.009 173.2911
204.485750 99.078 173.4847
205.967538 99.144 173.6562
207.460064 99.205 173.8062
208.963405 99.261 173.9355
210.477640 99.313 174.0450
212.002848 99.360 174.1357
213.539108 99.404 174.2089
215.086500 99.443 174.2657
216.645105 99.480 174.3076
218.215005 99.513 174.3359
219.796281 99.543 174.3519
221.389015 99.569 174.3567
222.993292 99.591 174.3513
224.609193 99.608 174.3367
226.236804 99.620 174.3136
227.876209 99.626 174.2829
229.527494 99.625 174.2455
231.190745 99.618 174.2021
232.866048 99.603 174.1537
234.553491 99.583 174.1010
236.253163 99.556 174.0443
237.965150 99.525 173.9843
239.689544 99.490 173.9212
241.426433 99.452 173.8555
243.175909 99.412 173.7875
244.938062 99.372 173.7173
246.712984 99.332 173.6454
248.500768 99.293 173.5717
250.301507 99.256 173.4962
252.115295 99.221 173.4191
253.942226 99.191 173.3402
255.782396 99.164 173.2596
257.635901 99.142 173.1772
259.502837 99.125 173.0930
261.383301 99.113 173.0070
263.277392 99.107 172.9190
265.185209 99.107 172.8292
267.106850 99.112 172.7373
269.042417 99.123 172.6435
270.992009 99.139 172.5478
272.955729 99.159 172.4503
274.933678 99.183 172.3511
276.925961 99.209 172.2505
278.932681 99.238 172.1489
280.953942 99.269 172.0466
282.989850 99.301 171.9442
285.040511 99.335 171.8423
287.106032 99.370 171.7418
289.186521 99.408 171.6432
291.282086 99.450 171.5476
293.392836 99.495 171.4556
295.518881 99.545 171.3677
297.660333 99.600 171.2845
299.817302 99.660 171.2065
301.989902 99.724 171.1338
304.178245 99.791 171.0669
306.382446 99.859 171.0058
308.602620 99.927 170.9506
310.838882 99.994 170.9016
313.091348 100.057 170.8586
315.360137 100.115 170.8217
317.645367 100.167 170.7910
319.947156 100.212 170.7664
322.265625 100.249 170.7480
324.600895 100.277 170.7357
326.953086 100.297 170.7288
329.322323 100.308 170.7271
331.708729 100.308 170.7296
334.112427 100.300 170.7353
336.533543 100.282 170.7432
338.972204 100.256 170.7518
341.428536 100.221 170.7596
343.902668 100.180 170.7652
346.394729 100.133 170.7672
348.904848 100.082 170.7642
351.433156 100.029 170.7550
353.979786 99.976 170.7389
356.544869 99.925 170.7149
359.128540 99.880 170.6824
361.730934 99.843 170.6406
364.352185 99.817 170.5888
366.992431 99.804 170.5261
369.651810 99.807 170.4516
372.330459 99.826 170.3642
375.028519 99.863 170.2632
377.746130 99.917 170.1481
380.483434 99.987 170.0186
383.240574 100.072 169.8749
386.017693 100.168 169.7178
388.814937 100.274 169.5488
391.632450 100.385 169.3694
394.470380 100.500 169.1818
397.328875 100.615 168.9883
400.208084 100.728 168.7914
403.108157 100.837 168.5930
406.029245 100.941 168.3952
408.971500 101.040 168.1999
411.935076 101.132 168.0086
414.920127 101.220 167.8231
417.926810 101.302 167.6451
420.955280 101.381 167.4767
424.005695 101.458 167.3198
427.078215 101.534 167.1760
430.173000 101.610 167.0466
433.290211 101.686 166.9320
436.430010 101.765 166.8314
439.592562 101.844 166.7428
442.778031 101.925 166.6634
445.986583 102.004 166.5897
449.218386 102.082 166.5182
452.473607 102.155 166.4460
455.752418 102.222 166.3705
459.054987 102.281 166.2902
462.381489 102.331 166.2043
465.732096 102.371 166.1123
469.106983 102.400 166.0140
472.506325 102.419 165.9094
475.930301 102.429 165.7982
479.379088 102.429 165.6799
482.852867 102.422 165.5541
486.351817 102.409 165.4200
489.876123 102.390 165.2768
493.425968 102.366 165.1240
497.001536 102.339 164.9610
500.603014 102.309 164.7877
504.230589 102.276 164.6041
507.884452 102.239 164.4105
511.564792 102.199 164.2073
515.271802 102.155 163.9950
519.005673 102.108 163.7744
522.766602 102.058 163.5461
526.554785 102.006 163.3113
530.370418 101.954 163.0709
534.213700 101.903 162.8257
538.084833 101.855 162.5769
541.984018 101.812 162.3252
545.911457 101.775 162.0714
549.867357 101.744 161.8162
553.851922 101.721 161.5603
557.865362 101.704 161.3044
561.907884 101.693 161.0491
565.979700 101.686 160.7955
570.081022 101.681 160.5443
574.212064 101.676 160.2966
578.373042 101.669 160.0534
582.564171 101.658 159.8156
586.785671 101.642 159.5843
591.037762 101.619 159.3602
595.320665 101.589 159.1442
599.634604 101.551 158.9370
603.979804 101.503 158.7391
608.356491 101.448 158.5511
612.764893 101.384 158.3732
617.205240 101.314 158.2056
621.677763 101.237 158.0482
626.182696 101.156 157.9007
630.720274 101.073 157.7627
635.290733 100.988 157.6338
639.894312 100.905 157.5137
644.531250 100.826 157.4022
649.201789 100.751 157.2993
653.906173 100.683 157.2053
658.644647 100.622 157.1207
663.417457 100.569 157.0457
668.224854 100.522 156.9809
673.067086 100.482 156.9265
677.944408 100.446 156.8825
682.857073 100.414 156.8488
687.805336 100.383 156.8248
692.789457 100.353 156.8100
697.809695 100.321 156.8036
702.866312 100.288 156.8047
707.959571 100.251 156.8124
713.089738 100.210 156.8258
718.257080 100.166 156.8442
723.461867 100.117 156.8671
728.704370 100.065 156.8940
733.984862 100.010 156.9249
739.303619 99.952 156.9596
744.660918 99.892 156.9980
750.057038 99.831 157.0403
755.492260 99.769 157.0863
760.966869 99.706 157.1360
766.481148 99.642 157.1895
772.035387 99.578 157.2465
777.629873 99.513 157.3071
783.264900 99.446 157.3711
788.940760 99.376 157.4385
794.657750 99.302 157.5093
800.416168 99.224 157.5835
806.216313 99.141 157.6612
812.058489 99.052 157.7426
817.943000 98.957 157.8278
823.870152 98.856 157.9168
829.840255 98.749 158.0095
835.853619 98.638 158.1051
841.910559 98.523 158.2029
848.011390 98.404 158.3016
854.156430 98.285 158.3994
860.346000 98.165 158.4942
866.580422 98.045 158.5841
872.860020 97.928 158.6669
879.185124 97.814 158.7407
885.556062 97.703 158.8040
891.973166 97.598 158.8559
898.436771 97.497 158.8964
904.947215 97.403 158.9261
911.504835 97.315 158.9465
918.109975 97.234 158.9599
924.762978 97.161 158.9689
931.464192 97.094 158.9767
938.213966 97.035 158.9863
945.012651 96.983 159.0008
951.860602 96.937 159.0235
958.758176 96.897 159.0583
965.705733 96.862 159.1096
972.703635 96.831 159.1832
979.752246 96.804 159.2854
986.851935 96.780 159.4236
994.003071 96.760 159.6056
1001.206027 96.743 159.8390
1008.461179 96.733 160.1309
1015.768904 96.730 160.4876
1023.129584 96.737 160.9136
1030.543603 96.758 161.4114
1038.011347 96.795 161.9804
1045.533205 96.852 162.6158
1053.109569 96.933 163.3075
1060.740836 97.038 164.0391
1068.427401 97.171 164.7873
1076.169666 97.330 165.5223
1083.968035 97.512 166.2096
1091.822915 97.714 166.8135
1099.734713 97.929 167.3008
1107.703844 98.151 167.6455
1115.730723 98.372 167.8320
1123.815768 98.584 167.8568
1131.959400 98.783 167.7283
1140.162045 98.963 167.4654
1148.424129 99.120 167.0940
1156.746083 99.255 166.6439
1165.128342 99.367 166.1452
1173.571343 99.458 165.6258
1182.075524 99.531 165.1093
1190.641331 99.588 164.6143
1199.269209 99.634 164.1542
1207.959608 99.672 163.7376
1216.712981 99.704 163.3687
1225.529785 99.732 163.0486
1234.410479 99.759 162.7755
1243.355526 99.785 162.5458
1252.365393 99.811 162.3553
1261.440549 99.837 162.1987
1270.581467 99.862 162.0712
1279.788624 99.885 161.9682
1289.062500 99.907 161.8857
1298.403578 99.927 161.8201
1307.812346 99.945 161.7688
1317.289293 99.961 161.7293
1326.834914 99.975 161.6998
1336.449707 99.987 161.6786
1346.134173 99.997 161.6648
1355.888816 100.005 161.6570
1365.714145 100.012 161.6544
1375.610673 100.018 161.6559
1385.578915 100.023 161.6609
1395.619391 100.027 161.6684
1405.732624 100.030 161.6780
1415.919142 100.032 161.6893
1426.179476 100.033 161.7021
1436.514160 100.034 161.7162
1446.923734 100.036 161.7314
1457.408740 100.038 161.7473
1467.969724 100.042 161.7635
1478.607238 100.048 161.7792
1489.321836 100.056 161.7938
1500.114076 100.068 161.8062
1510.984521 100.083 161.8153
1521.933737 100.102 161.8199
1532.962297 100.124 161.8189
1544.070773 100.149 161.8114
1555.259747 100.177 161.7967
1566.529800 100.207 161.7747
1577.881521 100.239 161.7454
1589.315501 100.271 161.7093
1600.832336 100.303 161.6671
1612.432627 100.335 161.6194
1624.116978 100.365 161.5669
1635.886000 100.394 161.5103
1647.740304 100.421 161.4499
1659.680509 100.447 161.3863
1671.707238 100.471 161.3197
1683.821118 100.494 161.2504
1696.022780 100.515 161.1785
1708.312860 100.536 161.1042
1720.692000 100.555 161.0277
1733.160843 100.575 160.9491
1745.720041 100.594 160.8687
1758.370248 100.612 160.7867
1771.112124 100.629 160.7037
1783.946332 100.646 160.6201
1796.873543 100.660 160.5368
1809.894429 100.673 160.4545
1823.009670 100.682 160.3743
1836.219950 100.689 160.2971
1849.525956 100.693 160.2240
1862.928384 100.693 160.1560
1876.427931 100.690 160.0940
1890.025301 100.684 160.0388
1903.721204 100.676 159.9907
1917.516352 100.664 159.9503
1931.411466 100.649 159.9177
1945.407270 100.632 159.8931
1959.504493 100.610 159.8765
1973.703870 100.585 159.8682
1988.006142 100.554 159.8684
2002.412054 100.518 159.8773
2016.922357 100.474 159.8953
2031.537808 100.423 159.9228
2046.259169 100.364 159.9606
2061.087206 100.296 160.0095
2076.022694 100.218 160.0710
2091.066410 100.132 160.1468
2106.219139 100.036 160.2383
2121.481671 99.933 160.3472
2136.854802 99.822 160.4749
2152.339333 99.705 160.6224
2167.936071 99.583 160.7903
2183.645829 99.458 160.9791
2199.469427 99.331 161.1888
2215.407689 99.204 161.4192
2231.461446 99.078 161.6700
2247.631536 98.954 161.9408
2263.918800 98.832 162.2310
2280.324089 98.714 162.5401
2296.848258 98.600 162.8678
2313.492167 98.491 163.2137
2330.256685 98.386 163.5778
2347.142685 98.285 163.9600
2364.151049 98.189 164.3602
2381.282662 98.098 164.7788
2398.538418 98.010 165.2156
2415.919216 97.927 165.6709
2433.425962 97.849 166.1443
2451.059570 97.775 166.6359
2468.820958 97.705 167.1451
2486.711052 97.641 167.6714
2504.730786 97.582 168.2144
2522.881098 97.530 168.7733
2541.162934 97.485 169.3472
2559.577248 97.447 169.9352
2578.125000 97.419 170.5365
2596.807157 97.401 171.1498
2615.624692 97.395 171.7740
2634.578586 97.403 172.4074
2653.669829 97.424 173.0480
2672.899414 97.461 173.6930
2692.268345 97.513 174.3393
2711.777632 97.581 174.9830
2731.428290 97.664 175.6198
2751.221345 97.761 176.2455
2771.157829 97.869 176.8559
2791.238781 97.987 177.4473
2811.465248 98.112 178.0172
2831.838284 98.242 178.5637
2852.358952 98.373 179.0862
2873.028321 98.503 179.5851
2893.847468 98.629 -179.9383
2914.817480 98.750 -179.4819
2935.939449 98.863 -179.0431
2957.214476 98.968 -178.6190
2978.643672 99.064 -178.2068
3000.228152 99.150 -177.8037
3021.969041 99.225 -177.4074
3043.867475 99.291 -177.0162
3065.924593 99.347 -176.6285
3088.141547 99.395 -176.2433
3110.519493 99.434 -175.8596
3133.059600 99.467 -175.4769
3155.763041 99.493 -175.0943
3178.631001 99.515 -174.7112
3201.664672 99.532 -174.3270
3224.865254 99.545 -173.9409
3248.233957 99.556 -173.5520
3271.771999 99.566 -173.1594
3295.480608 99.574 -172.7625
3319.361019 99.581 -172.3601
3343.414477 99.588 -171.9513
3367.642236 99.596 -171.5351
3392.045560 99.604 -171.1100
3416.625721 99.613 -170.6744
3441.383999 99.624 -170.2264
3466.321686 99.638 -169.7641
3491.440082 99.656 -169.2854
3516.740496 99.678 -168.7887
3542.224247 99.706 -168.2728
3567.892664 99.742 -167.7377
3593.747085 99.785 -167.1841
3619.788858 99.839 -166.6142
3646.019340 99.903 -166.0310
3672.439900 99.979 -165.4387
3699.051913 100.067 -164.8422
3725.856768 100.167 -164.2467
3752.855862 100.278 -163.6574
3780.050603 100.402 -163.0792
3807.442408 100.536 -162.5166
3835.032705 100.680 -161.9737
3862.822933 100.834 -161.4538
3890.814540 100.996 -160.9597
3919.008986 101.165 -160.4940
3947.407741 101.341 -160.0587
3976.012284 101.522 -159.6559
4004.824108 101.708 -159.2874
4033.844715 101.897 -158.9552
4063.075616 102.090 -158.6607
4092.518337 102.284 -158.4054
4122.174412 102.480 -158.1903
4152.045387 102.677 -158.0159
4182.132820 102.874 -157.8823
4212.438278 103.071 -157.7891
4242.963342 103.267 -157.7358
4273.709604 103.462 -157.7222
4304.678665 103.656 -157.7481
4335.872141 103.849 -157.8143
4367.291658 104.041 -157.9220
4398.938854 104.230 -158.0734
4430.815378 104.417 -158.2713
4462.922893 104.601 -158.5196
4495.263072 104.782 -158.8225
4527.837601 104.959 -159.1854
4560.648179 105.131 -159.6139
4593.696515 105.299 -160.1143
4626.984334 105.460 -160.6930
4660.513370 105.615 -161.3560
4694.285371 105.763 -162.1083
4728.302098 105.902 -162.9538
4762.565324 106.031 -163.8941
4797.076835 106.149 -164.9288
4831.838432 106.255 -166.0548
4866.851925 106.347 -167.2659
4902.119140 106.424 -168.5538
4937.641916 106.484 -169.9071
4973.422105 106.528 -171.3127
5009.461572 106.554 -172.7556
5045.762195 106.562 -174.2197
5082.325868 106.553 -175.6880
5119.154496 106.525 -177.1434
5156.250000 106.481 -178.5686
5193.614313 106.421 -179.9474
5231.249383 106.346 178.7356
5269.157173 106.258 177.4942
5307.339658 106.158 176.3404
5345.798829 106.049 175.2837
5384.536691 105.932 174.3314
5423.555263 105.810 173.4880
5462.856580 105.685 172.7549
5502.442691 105.561 172.1309
5542.315659 105.440 171.6111
5582.477563 105.325 171.1875
5622.930497 105.220 170.8489
5663.676569 105.128 170.5807
5704.717904 105.052 170.3660
5746.056642 104.996 170.1850
5787.694937 104.960 170.0171
5829.634960 104.946 169.8407
5871.878898 104.954 169.6346
5914.428953 104.983 169.3788
5957.287343 105.032 169.0555
6000.456303 105.096 168.6495
6043.938083 105.173 168.1486
6087.734950 105.258 167.5441
6131.849187 105.346 166.8305
6176.283094 105.433 166.0056
6221.038987 105.513 165.0700
6266.119200 105.583 164.0270
6311.526083 105.638 162.8819
6357.262002 105.676 161.6421
6403.329344 105.693 160.3163
6449.730508 105.687 158.9144
6496.467914 105.657 157.4471
6543.543998 105.602 155.9259
6590.961215 105.520 154.3626
6638.722037 105.412 152.7696
6686.828954 105.278 151.1592
6735.284473 105.119 149.5441
6784.091120 104.934 147.9366
6833.251441 104.726 146.3495
6882.767998 104.496 144.7947
6932.643372 104.244 143.2841
6982.880164 103.973 141.8287
7033.480992 103.684 140.4388
7084.448495 103.379 139.1237
7135.785329 103.060 137.8912
7187.494171 102.729 136.7478
7239.577717 102.388 135.6979
7292.038681 102.038 134.7440
7344.879799 101.681 133.8860
7398.103826 101.319 133.1208
7451.713536 100.954 132.4421
7505.711724 100.586 131.8401
7560.101205 100.216 131.3008
7614.884815 99.846 130.8061
7670.065409 99.475 130.3336
7725.645865 99.105 129.8565
7781.629080 98.733 129.3445
7838.017972 98.361 128.7639
7894.815481 97.987 128.0794
7952.024569 97.609 127.2559
8009.648217 97.225 126.2614
8067.689429 96.833 125.0707
8126.151233 96.430 123.6708
8185.036674 96.012 122.0663
8244.348824 95.578 120.2874
8304.090774 95.129 118.4012
8364.265639 94.668 116.5328
8424.876556 94.209 114.9182
8485.926684 93.771 114.0648
8547.419207 93.382 115.4076
8609.357330 93.077 125.6399
8671.744282 92.888 -160.2316
8734.583316 92.838 -109.7490
8797.877707 92.931 -103.0282
8861.630756 93.154 -102.4369
8925.845785 93.479 -103.6096
8990.526143 93.872 -105.5015
9055.675202 94.301 -107.7430
9121.296357 94.739 -110.1715
9187.393031 95.167 -112.7043
9253.968668 95.572 -115.2948
9321.026740 95.944 -117.9142
9388.570742 96.277 -120.5439
9456.604196 96.570 -123.1720
9525.130648 96.820 -125.7911
9594.153671 97.028 -128.3976
9663.676863 97.192 -130.9908
9733.703850 97.315 -133.5715
9804.238280 97.395 -136.1412
9875.283832 97.434 -138.7013
9946.844210 97.433 -141.2515
10018.923143 97.393 -143.7896
10091.524390 97.313 -146.3105
10164.651736 97.195 -148.8058
10238.308993 97.040 -151.2646
10312.500000 96.851 -153.6726
10387.228626 96.627 -156.0137
10462.498767 96.372 -158.2708
10538.314345 96.088 -160.4263
10614.679315 95.777 -162.4643
10691.597657 95.442 -164.3709
10769.073381 95.087 -166.1357
10847.110526 94.713 -167.7519
10925.713161 94.325 -169.2175
11004.885382 93.925 -170.5354
11084.631318 93.514 -171.7135
11164.955126 93.097 -172.7657
11245.860993 92.675 -173.7115
11327.353138 92.250 -174.5764
11409.435808 91.827 -175.3922
11492.113283 91.407 -176.1970
11575.389873 90.995 -177.0350
11659.269920 90.595 -177.9568
11743.757796 90.212 -179.0184
11828.857906 89.851 179.7195
11914.574686 89.516 178.1931
12000.912606 89.208 176.3376
12087.876166 88.928 174.0903
12175.469900 88.673 171.3923
12263.698373 88.437 168.1903
12352.566187 88.212 164.4365
12442.077974 87.986 160.0870
12532.238400 87.749 155.0965
12623.052165 87.491 149.4103
12714.524005 87.203 142.9521
12806.658687 86.880 135.6051
12899.461015 86.518 127.1880
12992.935827 86.121 117.4288
13087.087996 85.693 105.9479
13181.922430 85.243 92.3078
13277.444074 84.781 76.2339
13373.657907 84.322 58.0880
13470.568945 83.878 39.2328
13568.182241 83.464 21.4920
13666.502883 83.089 6.0344
13765.535996 82.761 -6.9670
13865.286744 82.482 -17.8904
13965.760328 82.246 -27.2265
14066.961984 82.045 -35.3954
14168.896989 81.865 -42.7106
14271.570658 81.690 -49.3917
14374.988342 81.505 -55.5845
14479.155433 81.294 -61.3766
14584.077362 81.042 -66.8088
14689.759598 80.737 -71.8815
14796.207652 80.370 -76.5594
14903.427072 79.935 -80.7742
15011.423448 79.429 -84.4260
15120.202410 78.853 -87.3842
15229.769630 78.212 -89.4862
15340.130819 77.518 -90.5404
15451.291730 76.786 -90.3356
15563.258160 76.040 -88.6772
15676.035944 75.311 -85.4713
15789.630962 74.638 -80.8625
15904.049137 74.065 -75.3591
16019.296433 73.631 -69.7819
16135.378859 73.361 -64.9799
16252.302465 73.256 -61.5208
16370.073348 73.295 -59.6053
16488.697648 73.436 -59.1750
16608.181548 73.634 -60.0551
16728.531278 73.848 -62.0442
16849.753112 74.043 -64.9536
16971.853368 74.193 -68.6169
17094.838414 74.282 -72.8897
17218.714660 74.298 -77.6465
17343.488565 74.236 -82.7788
17469.166632 74.097 -88.1943
17595.755415 73.883 -93.8164
17723.261512 73.599 -99.5817
17851.691571 73.252 -105.4368
17981.052287 72.852 -111.3322
18111.350404 72.408 -117.2119
18242.592715 71.930 -123.0022
18374.786062 71.431 -128.5917
18507.937336 70.925 -133.8041
18642.053479 70.430 -138.3451
18777.141484 69.969 -141.6868
18913.208391 69.567 -142.7708
19050.261296 69.246 -139.1392
19188.307342 69.022 -124.5654
19327.353727 68.899 -91.4369
19467.407699 68.862 -60.9957
19608.476560 68.887 -47.8651
19750.567664 68.942 -43.1138
19893.688419 68.997 -41.5068
20037.846286 69.030 -41.0546
