* Measurement data measured by REW V5.31.3
* Source: EXCL: Headset (USB-C to 3.5mm Headphone Jack Adapter), MICROPHONE (Master Volume), 0, volume: 0.250
* Format: 256k Log Swept Sine, 1 sweep at -12.0 dBFS with no timing reference
* Dated: Feb 9, 2025 6:18:35 PM
* REW Settings:
*  C-weighting compensation: Off
*  Target level: 75.0 dB
* Note: ; 
* Measurement: Satyr 2 (Geekria) L7
* Smoothing: 1/6 octave
* Frequency Step: 96 ppo
* Start Frequency: 20.0 Hz
*
* Freq(Hz) SPL(dB) Phase(degrees)
20.141602 90.950 -28.1476
20.287556 90.965 -28.3905
20.434568 90.982 -28.7151
20.582645 90.999 -29.1114
20.731796 91.013 -29.5686
20.882027 91.021 -30.0763
21.033346 91.022 -30.6246
21.185763 91.014 -31.2051
21.339284 90.997 -31.8108
21.493917 90.973 -32.4360
21.649671 90.941 -33.0763
21.806553 90.905 -33.7284
21.964572 90.865 -34.3897
22.123737 90.824 -35.0579
22.284054 90.784 -35.7311
22.445534 90.746 -36.4070
22.608183 90.713 -37.0831
22.772012 90.684 -37.7565
22.937027 90.662 -38.4242
23.103238 90.648 -39.0829
23.270654 90.641 -39.7298
23.439282 90.643 -40.3626
23.609133 90.655 -40.9801
23.780215 90.676 -41.5821
23.952536 90.709 -42.1703
24.126106 90.752 -42.7475
24.300934 90.807 -43.3180
24.477028 90.873 -43.8869
24.654399 90.949 -44.4599
24.833055 91.034 -45.0420
25.013005 91.126 -45.6378
25.194260 91.223 -46.2500
25.376828 91.324 -46.8797
25.560719 91.427 -47.5259
25.745942 91.530 -48.1859
25.932508 91.631 -48.8552
26.120426 91.729 -49.5285
26.309705 91.824 -50.2002
26.500356 91.916 -50.8650
26.692388 92.004 -51.5184
26.885812 92.088 -52.1572
27.080638 92.169 -52.7795
27.276876 92.247 -53.3851
27.474535 92.323 -53.9748
27.673627 92.398 -54.5504
27.874161 92.473 -55.1142
28.076149 92.550 -55.6688
28.279600 92.630 -56.2169
28.484526 92.716 -56.7611
28.690937 92.811 -57.3039
28.898843 92.916 -57.8478
29.108256 93.035 -58.3954
29.319186 93.167 -58.9490
29.531645 93.315 -59.5109
29.745644 93.477 -60.0832
29.961193 93.650 -60.6671
30.178304 93.833 -61.2634
30.396989 94.021 -61.8717
30.617258 94.210 -62.4909
30.839123 94.394 -63.1191
31.062596 94.569 -63.7539
31.287688 94.730 -64.3930
31.514412 94.873 -65.0340
31.742778 94.994 -65.6754
31.972800 95.091 -66.3162
32.204488 95.161 -66.9561
32.437855 95.203 -67.5953
32.672913 95.217 -68.2340
32.909674 95.204 -68.8726
33.148151 95.164 -69.5110
33.388356 95.099 -70.1489
33.630302 95.014 -70.7857
33.874001 94.912 -71.4204
34.119466 94.796 -72.0525
34.366710 94.671 -72.6818
34.615745 94.543 -73.3087
34.866585 94.416 -73.9339
35.119243 94.295 -74.5588
35.373731 94.183 -75.1846
35.630064 94.084 -75.8128
35.888254 94.001 -76.4443
36.148315 93.936 -77.0797
36.410261 93.890 -77.7191
36.674104 93.866 -78.3623
36.939860 93.862 -79.0090
37.207542 93.880 -79.6585
37.477163 93.919 -80.3102
37.748738 93.979 -80.9634
38.022281 94.059 -81.6170
38.297806 94.158 -82.2701
38.575327 94.276 -82.9219
38.854860 94.412 -83.5715
39.136419 94.565 -84.2185
39.420017 94.735 -84.8630
39.705671 94.920 -85.5056
39.993395 95.120 -86.1473
40.283203 95.334 -86.7893
40.575112 95.561 -87.4329
40.869136 95.798 -88.0789
41.165290 96.044 -88.7280
41.463591 96.298 -89.3802
41.764053 96.558 -90.0347
42.066693 96.821 -90.6907
42.371525 97.085 -91.3466
42.678567 97.349 -92.0011
42.987834 97.609 -92.6528
43.299341 97.864 -93.3007
43.613106 98.112 -93.9440
43.929145 98.351 -94.5831
44.247473 98.579 -95.2184
44.568109 98.794 -95.8511
44.891068 98.995 -96.4825
45.216367 99.180 -97.1140
45.544023 99.350 -97.7466
45.874054 99.502 -98.3806
46.206476 99.638 -99.0159
46.541307 99.756 -99.6520
46.878565 99.857 -100.2877
47.218266 99.941 -100.9221
47.560429 100.008 -101.5541
47.905072 100.060 -102.1831
48.252212 100.096 -102.8088
48.601867 100.119 -103.4312
48.954056 100.130 -104.0508
49.308798 100.130 -104.6682
49.666109 100.120 -105.2844
50.026010 100.104 -105.9004
50.388520 100.083 -106.5169
50.753656 100.059 -107.1344
51.121437 100.034 -107.7527
51.491884 100.010 -108.3710
51.865016 99.987 -108.9880
52.240851 99.967 -109.6022
52.619410 99.950 -110.2121
53.000712 99.937 -110.8168
53.384777 99.928 -111.4157
53.771625 99.921 -112.0089
54.161276 99.917 -112.5968
54.553751 99.915 -113.1802
54.949070 99.914 -113.7595
55.347254 99.912 -114.3354
55.748323 99.910 -114.9082
56.152298 99.906 -115.4783
56.559201 99.899 -116.0460
56.969052 99.889 -116.6118
57.381873 99.877 -117.1759
57.797686 99.861 -117.7389
58.216512 99.841 -118.3014
58.638373 99.819 -118.8641
59.063291 99.794 -119.4274
59.491288 99.767 -119.9916
59.922386 99.737 -120.5568
60.356608 99.706 -121.1227
60.793977 99.674 -121.6889
61.234515 99.641 -122.2550
61.678246 99.608 -122.8206
62.125192 99.575 -123.3855
62.575377 99.541 -123.9495
63.028824 99.509 -124.5124
63.485557 99.478 -125.0741
63.945599 99.448 -125.6344
64.408975 99.419 -126.1929
64.875709 99.393 -126.7493
65.345825 99.369 -127.3030
65.819348 99.348 -127.8536
66.296302 99.330 -128.4009
66.776713 99.315 -128.9446
67.260604 99.302 -129.4843
67.748002 99.292 -130.0197
68.238932 99.284 -130.5506
68.733420 99.278 -131.0768
69.231490 99.274 -131.5981
69.733170 99.272 -132.1145
70.238485 99.271 -132.6258
70.747463 99.271 -133.1317
71.260128 99.272 -133.6317
71.776508 99.275 -134.1257
72.296630 99.278 -134.6135
72.820521 99.283 -135.0954
73.348209 99.289 -135.5715
73.879720 99.295 -136.0421
74.415083 99.303 -136.5079
74.954326 99.311 -136.9692
75.497475 99.319 -137.4269
76.044561 99.328 -137.8811
76.595612 99.336 -138.3323
77.150655 99.342 -138.7806
77.709720 99.348 -139.2259
78.272837 99.351 -139.6683
78.840034 99.352 -140.1079
79.411342 99.349 -140.5446
79.986789 99.344 -140.9787
80.566406 99.335 -141.4100
81.150224 99.323 -141.8387
81.738272 99.308 -142.2648
82.330581 99.291 -142.6887
82.927182 99.272 -143.1104
83.528107 99.254 -143.5303
84.133386 99.238 -143.9488
84.743051 99.227 -144.3660
85.357134 99.222 -144.7820
85.975667 99.228 -145.1971
86.598682 99.248 -145.6114
87.226212 99.285 -146.0247
87.858289 99.341 -146.4371
88.494946 99.420 -146.8486
89.136217 99.522 -147.2591
89.782135 99.649 -147.6686
90.432733 99.799 -148.0770
91.088046 99.969 -148.4844
91.748108 100.157 -148.8906
92.412952 100.357 -149.2958
93.082615 100.564 -149.7003
93.757130 100.772 -150.1045
94.436533 100.978 -150.5086
95.120859 101.174 -150.9131
95.810144 101.359 -151.3182
96.504423 101.528 -151.7239
97.203734 101.680 -152.1304
97.908112 101.815 -152.5376
98.617595 101.932 -152.9456
99.332219 102.033 -153.3543
100.052021 102.118 -153.7637
100.777039 102.191 -154.1737
101.507311 102.253 -154.5838
102.242875 102.307 -154.9940
102.983769 102.354 -155.4039
103.730032 102.395 -155.8133
104.481702 102.431 -156.2221
105.238820 102.461 -156.6305
106.001424 102.486 -157.0388
106.769554 102.503 -157.4476
107.543250 102.511 -157.8576
108.322553 102.509 -158.2692
109.107503 102.495 -158.6822
109.898141 102.468 -159.0961
110.694508 102.427 -159.5101
111.496646 102.372 -159.9235
112.304596 102.303 -160.3357
113.118402 102.222 -160.7462
113.938104 102.130 -161.1550
114.763747 102.028 -161.5619
115.595372 101.921 -161.9669
116.433024 101.808 -162.3696
117.276746 101.694 -162.7695
118.126581 101.579 -163.1660
118.982575 101.465 -163.5583
119.844772 101.354 -163.9457
120.713217 101.245 -164.3274
121.587954 101.138 -164.7027
122.469031 101.033 -165.0711
123.356492 100.929 -165.4321
124.250384 100.824 -165.7856
125.150753 100.717 -166.1313
126.057647 100.607 -166.4690
126.971113 100.492 -166.7986
127.891198 100.372 -167.1196
128.817950 100.246 -167.4317
129.751418 100.115 -167.7349
130.691651 99.977 -168.0294
131.638696 99.836 -168.3157
132.592604 99.692 -168.5949
133.553425 99.548 -168.8685
134.521208 99.407 -169.1387
135.496004 99.272 -169.4079
136.477864 99.146 -169.6789
137.466839 99.033 -169.9546
138.462981 98.937 -170.2379
139.466340 98.859 -170.5315
140.476971 98.800 -170.8376
141.494925 98.762 -171.1581
142.520256 98.742 -171.4942
143.553016 98.738 -171.8465
144.593260 98.747 -172.2151
145.641043 98.764 -172.5993
146.696418 98.785 -172.9983
147.759441 98.806 -173.4105
148.830166 98.824 -173.8342
149.908651 98.834 -174.2675
150.994951 98.836 -174.7082
152.089123 98.827 -175.1543
153.191223 98.809 -175.6036
154.301310 98.781 -176.0540
155.419441 98.745 -176.5036
156.545674 98.703 -176.9503
157.680069 98.656 -177.3922
158.822683 98.606 -177.8274
159.973578 98.554 -178.2540
161.132813 98.502 -178.6703
162.300447 98.451 -179.0750
163.476543 98.400 -179.4668
164.661162 98.351 -179.8451
165.854364 98.304 179.7905
167.056213 98.259 179.4403
168.266772 98.216 179.1047
169.486102 98.176 178.7839
170.714268 98.139 178.4783
171.951334 98.106 178.1884
173.197364 98.076 177.9149
174.452424 98.050 177.6586
175.716578 98.028 177.4202
176.989893 98.009 177.2005
178.272434 97.993 177.0001
179.564270 97.979 176.8193
180.865467 97.966 176.6582
182.176092 97.952 176.5168
183.496216 97.938 176.3947
184.825905 97.922 176.2915
186.165229 97.905 176.2063
187.514259 97.886 176.1382
188.873065 97.865 176.0861
190.241717 97.843 176.0488
191.620287 97.822 176.0250
193.008847 97.801 176.0137
194.407468 97.781 176.0137
195.816225 97.763 176.0240
197.235190 97.747 176.0436
198.664438 97.733 176.0712
200.104042 97.721 176.1058
201.554078 97.711 176.1459
203.014622 97.702 176.1901
204.485750 97.694 176.2365
205.967538 97.686 176.2828
207.460064 97.678 176.3268
208.963405 97.669 176.3657
210.477640 97.659 176.3972
212.002848 97.648 176.4193
213.539108 97.636 176.4304
215.086500 97.623 176.4296
216.645105 97.609 176.4163
218.215005 97.594 176.3907
219.796281 97.578 176.3536
221.389015 97.560 176.3062
222.993292 97.539 176.2500
224.609193 97.514 176.1867
226.236804 97.486 176.1183
227.876209 97.452 176.0464
229.527494 97.413 175.9728
231.190745 97.368 175.8989
232.866048 97.318 175.8256
234.553491 97.261 175.7538
236.253163 97.200 175.6841
237.965150 97.135 175.6169
239.689544 97.068 175.5521
241.426433 96.998 175.4892
243.175909 96.927 175.4274
244.938062 96.857 175.3657
246.712984 96.788 175.3030
248.500768 96.722 175.2379
250.301507 96.658 175.1689
252.115295 96.598 175.0948
253.942226 96.543 175.0144
255.782396 96.492 174.9270
257.635901 96.448 174.8320
259.502837 96.409 174.7291
261.383301 96.376 174.6180
263.277392 96.350 174.4986
265.185209 96.330 174.3708
267.106850 96.316 174.2349
269.042417 96.308 174.0909
270.992009 96.305 173.9396
272.955729 96.306 173.7818
274.933678 96.311 173.6183
276.925961 96.319 173.4503
278.932681 96.329 173.2786
280.953942 96.340 173.1044
282.989850 96.352 172.9285
285.040511 96.366 172.7517
287.106032 96.381 172.5750
289.186521 96.399 172.3991
291.282086 96.419 172.2251
293.392836 96.443 172.0540
295.518881 96.471 171.8866
297.660333 96.504 171.7239
299.817302 96.541 171.5666
301.989902 96.582 171.4153
304.178245 96.625 171.2704
306.382446 96.670 171.1323
308.602620 96.714 171.0014
310.838882 96.756 170.8779
313.091348 96.794 170.7621
315.360137 96.827 170.6543
317.645367 96.853 170.5545
319.947156 96.872 170.4629
322.265625 96.883 170.3793
324.600895 96.885 170.3038
326.953086 96.877 170.2363
329.322323 96.859 170.1768
331.708729 96.832 170.1250
334.112427 96.794 170.0807
336.533543 96.746 170.0436
338.972204 96.690 170.0130
341.428536 96.624 169.9881
343.902668 96.551 169.9681
346.394729 96.472 169.9519
348.904848 96.388 169.9386
351.433156 96.302 169.9272
353.979786 96.214 169.9167
356.544869 96.129 169.9062
359.128540 96.048 169.8949
361.730934 95.975 169.8821
364.352185 95.911 169.8671
366.992431 95.861 169.8496
369.651810 95.826 169.8290
372.330459 95.807 169.8051
375.028519 95.807 169.7776
377.746130 95.825 169.7467
380.483434 95.860 169.7125
383.240574 95.912 169.6755
386.017693 95.977 169.6361
388.814937 96.054 169.5948
391.632450 96.138 169.5523
394.470380 96.229 169.5089
397.328875 96.322 169.4648
400.208084 96.416 169.4202
403.108157 96.509 169.3749
406.029245 96.599 169.3286
408.971500 96.687 169.2809
411.935076 96.771 169.2311
414.920127 96.851 169.1789
417.926810 96.929 169.1238
420.955280 97.004 169.0656
424.005695 97.077 169.0043
427.078215 97.149 168.9398
430.173000 97.220 168.8723
433.290211 97.290 168.8022
436.430010 97.358 168.7302
439.592562 97.424 168.6571
442.778031 97.487 168.5845
445.986583 97.545 168.5142
449.218386 97.597 168.4486
452.473607 97.641 168.3904
455.752418 97.675 168.3428
459.054987 97.700 168.3091
462.381489 97.713 168.2931
465.732096 97.714 168.2979
469.106983 97.705 168.3267
472.506325 97.685 168.3813
475.930301 97.655 168.4627
479.379088 97.619 168.5703
482.852867 97.576 168.7018
486.351817 97.530 168.8538
489.876123 97.481 169.0215
493.425968 97.431 169.1998
497.001536 97.381 169.3827
500.603014 97.331 169.5648
504.230589 97.281 169.7413
507.884452 97.232 169.9082
511.564792 97.182 170.0629
515.271802 97.131 170.2037
519.005673 97.080 170.3303
522.766602 97.029 170.4431
526.554785 96.977 170.5431
530.370418 96.927 170.6318
534.213700 96.881 170.7110
538.084833 96.839 170.7823
541.984018 96.803 170.8474
545.911457 96.775 170.9077
549.867357 96.756 170.9645
553.851922 96.745 171.0190
557.865362 96.742 171.0720
561.907884 96.745 171.1243
565.979700 96.754 171.1769
570.081022 96.766 171.2303
574.212064 96.779 171.2856
578.373042 96.791 171.3438
582.564171 96.800 171.4057
586.785671 96.805 171.4724
591.037762 96.805 171.5446
595.320665 96.798 171.6228
599.634604 96.784 171.7073
603.979804 96.764 171.7980
608.356491 96.738 171.8945
612.764893 96.706 171.9963
617.205240 96.669 172.1026
621.677763 96.628 172.2124
626.182696 96.586 172.3246
630.720274 96.543 172.4377
635.290733 96.502 172.5506
639.894312 96.464 172.6618
644.531250 96.432 172.7700
649.201789 96.406 172.8742
653.906173 96.388 172.9734
658.644647 96.378 173.0667
663.417457 96.376 173.1536
668.224854 96.381 173.2338
673.067086 96.393 173.3071
677.944408 96.410 173.3732
682.857073 96.429 173.4323
687.805336 96.450 173.4843
692.789457 96.470 173.5290
697.809695 96.488 173.5668
702.866312 96.503 173.5976
707.959571 96.513 173.6216
713.089738 96.519 173.6394
718.257080 96.519 173.6516
723.461867 96.514 173.6591
728.704370 96.504 173.6635
733.984862 96.489 173.6665
739.303619 96.470 173.6699
744.660918 96.447 173.6757
750.057038 96.422 173.6855
755.492260 96.394 173.7011
760.966869 96.365 173.7236
766.481148 96.335 173.7538
772.035387 96.303 173.7919
777.629873 96.270 173.8379
783.264900 96.236 173.8908
788.940760 96.199 173.9493
794.657750 96.160 174.0116
800.416168 96.116 174.0757
806.216313 96.069 174.1394
812.058489 96.017 174.2005
817.943000 95.959 174.2568
823.870152 95.896 174.3069
829.840255 95.829 174.3494
835.853619 95.756 174.3841
841.910559 95.679 174.4112
848.011390 95.598 174.4320
854.156430 95.515 174.4483
860.346000 95.430 174.4622
866.580422 95.344 174.4755
872.860020 95.260 174.4897
879.185124 95.178 174.5056
885.556062 95.100 174.5234
891.973166 95.027 174.5425
898.436771 94.961 174.5618
904.947215 94.903 174.5798
911.504835 94.854 174.5947
918.109975 94.815 174.6044
924.762978 94.786 174.6069
931.464192 94.769 174.6001
938.213966 94.763 174.5824
945.012651 94.767 174.5527
951.860602 94.780 174.5103
958.758176 94.803 174.4555
965.705733 94.833 174.3893
972.703635 94.869 174.3132
979.752246 94.910 174.2288
986.851935 94.956 174.1378
994.003071 95.006 174.0417
1001.206027 95.059 173.9421
1008.461179 95.116 173.8399
1015.768904 95.177 173.7361
1023.129584 95.243 173.6312
1030.543603 95.313 173.5253
1038.011347 95.389 173.4188
1045.533205 95.471 173.3115
1053.109569 95.560 173.2036
1060.740836 95.656 173.0952
1068.427401 95.759 172.9868
1076.169666 95.867 172.8794
1083.968035 95.981 172.7739
1091.822915 96.098 172.6709
1099.734713 96.218 172.5710
1107.703844 96.338 172.4734
1115.730723 96.458 172.3767
1123.815768 96.576 172.2780
1131.959400 96.692 172.1735
1140.162045 96.803 172.0585
1148.424129 96.909 171.9283
1156.746083 97.010 171.7783
1165.128342 97.106 171.6048
1173.571343 97.197 171.4050
1182.075524 97.283 171.1769
1190.641331 97.365 170.9198
1199.269209 97.442 170.6341
1207.959608 97.515 170.3214
1216.712981 97.585 169.9841
1225.529785 97.649 169.6261
1234.410479 97.708 169.2523
1243.355526 97.762 168.8691
1252.365393 97.808 168.4836
1261.440549 97.847 168.1030
1270.581467 97.879 167.7336
1279.788624 97.903 167.3806
1289.062500 97.920 167.0481
1298.403578 97.929 166.7390
1307.812346 97.931 166.4554
1317.289293 97.928 166.1986
1326.834914 97.919 165.9695
1336.449707 97.906 165.7684
1346.134173 97.889 165.5952
1355.888816 97.869 165.4496
1365.714145 97.846 165.3310
1375.610673 97.821 165.2382
1385.578915 97.795 165.1688
1395.619391 97.767 165.1198
1405.732624 97.738 165.0878
1415.919142 97.707 165.0700
1426.179476 97.676 165.0648
1436.514160 97.644 165.0721
1446.923734 97.611 165.0925
1457.408740 97.579 165.1276
1467.969724 97.547 165.1787
1478.607238 97.518 165.2465
1489.321836 97.492 165.3311
1500.114076 97.469 165.4315
1510.984521 97.450 165.5467
1521.933737 97.436 165.6761
1532.962297 97.425 165.8200
1544.070773 97.418 165.9791
1555.259747 97.415 166.1545
1566.529800 97.414 166.3477
1577.881521 97.415 166.5602
1589.315501 97.419 166.7939
1600.832336 97.424 167.0508
1612.432627 97.432 167.3329
1624.116978 97.441 167.6413
1635.886000 97.453 167.9752
1647.740304 97.469 168.3314
1659.680509 97.489 168.7051
1671.707238 97.513 169.0911
1683.821118 97.542 169.4846
1696.022780 97.576 169.8817
1708.312860 97.615 170.2791
1720.692000 97.658 170.6740
1733.160843 97.707 171.0640
1745.720041 97.760 171.4474
1758.370248 97.817 171.8236
1771.112124 97.877 172.1932
1783.946332 97.940 172.5579
1796.873543 98.005 172.9195
1809.894429 98.073 173.2787
1823.009670 98.142 173.6344
1836.219950 98.215 173.9835
1849.525956 98.289 174.3221
1862.928384 98.366 174.6463
1876.427931 98.445 174.9527
1890.025301 98.527 175.2379
1903.721204 98.610 175.4984
1917.516352 98.695 175.7312
1931.411466 98.780 175.9344
1945.407270 98.866 176.1078
1959.504493 98.950 176.2524
1973.703870 99.032 176.3694
1988.006142 99.110 176.4594
2002.412054 99.184 176.5231
2016.922357 99.253 176.5614
2031.537808 99.315 176.5758
2046.259169 99.369 176.5676
2061.087206 99.416 176.5374
2076.022694 99.456 176.4848
2091.066410 99.488 176.4087
2106.219139 99.513 176.3074
2121.481671 99.533 176.1788
2136.854802 99.547 176.0212
2152.339333 99.557 175.8328
2167.936071 99.563 175.6124
2183.645829 99.567 175.3594
2199.469427 99.570 175.0739
2215.407689 99.571 174.7569
2231.461446 99.571 174.4101
2247.631536 99.572 174.0353
2263.918800 99.572 173.6340
2280.324089 99.573 173.2073
2296.848258 99.573 172.7561
2313.492167 99.573 172.2817
2330.256685 99.571 171.7859
2347.142685 99.568 171.2712
2364.151049 99.562 170.7403
2381.282662 99.553 170.1964
2398.538418 99.541 169.6427
2415.919216 99.526 169.0820
2433.425962 99.507 168.5170
2451.059570 99.485 167.9498
2468.820958 99.461 167.3826
2486.711052 99.434 166.8171
2504.730786 99.406 166.2545
2522.881098 99.377 165.6957
2541.162934 99.347 165.1412
2559.577248 99.318 164.5912
2578.125000 99.291 164.0451
2596.807157 99.267 163.5019
2615.624692 99.246 162.9598
2634.578586 99.230 162.4172
2653.669829 99.218 161.8726
2672.899414 99.211 161.3256
2692.268345 99.208 160.7769
2711.777632 99.209 160.2291
2731.428290 99.212 159.6866
2751.221345 99.218 159.1551
2771.157829 99.224 158.6414
2791.238781 99.230 158.1523
2811.465248 99.234 157.6943
2831.838284 99.235 157.2726
2852.358952 99.232 156.8913
2873.028321 99.223 156.5533
2893.847468 99.208 156.2609
2914.817480 99.184 156.0165
2935.939449 99.151 155.8229
2957.214476 99.107 155.6835
2978.643672 99.053 155.6026
3000.228152 98.986 155.5856
3021.969041 98.908 155.6381
3043.867475 98.819 155.7663
3065.924593 98.720 155.9764
3088.141547 98.612 156.2739
3110.519493 98.498 156.6632
3133.059600 98.380 157.1473
3155.763041 98.261 157.7269
3178.631001 98.143 158.3997
3201.664672 98.030 159.1602
3224.865254 97.926 159.9992
3248.233957 97.832 160.9038
3271.771999 97.751 161.8581
3295.480608 97.686 162.8438
3319.361019 97.637 163.8416
3343.414477 97.605 164.8317
3367.642236 97.591 165.7957
3392.045560 97.593 166.7168
3416.625721 97.612 167.5811
3441.383999 97.645 168.3769
3466.321686 97.692 169.0954
3491.440082 97.752 169.7300
3516.740496 97.822 170.2760
3542.224247 97.902 170.7305
3567.892664 97.990 171.0922
3593.747085 98.085 171.3618
3619.788858 98.185 171.5412
3646.019340 98.289 171.6340
3672.439900 98.394 171.6451
3699.051913 98.501 171.5808
3725.856768 98.607 171.4485
3752.855862 98.710 171.2566
3780.050603 98.811 171.0140
3807.442408 98.908 170.7303
3835.032705 99.000 170.4146
3862.822933 99.088 170.0761
3890.814540 99.170 169.7232
3919.008986 99.247 169.3633
3947.407741 99.320 169.0023
3976.012284 99.387 168.6451
4004.824108 99.450 168.2946
4033.844715 99.508 167.9524
4063.075616 99.562 167.6187
4092.518337 99.611 167.2925
4122.174412 99.656 166.9725
4152.045387 99.696 166.6574
4182.132820 99.730 166.3468
4212.438278 99.758 166.0418
4242.963342 99.779 165.7450
4273.709604 99.793 165.4607
4304.678665 99.799 165.1946
4335.872141 99.798 164.9532
4367.291658 99.788 164.7432
4398.938854 99.771 164.5709
4430.815378 99.747 164.4413
4462.922893 99.717 164.3580
4495.263072 99.681 164.3229
4527.837601 99.639 164.3367
4560.648179 99.593 164.3986
4593.696515 99.542 164.5069
4626.984334 99.489 164.6588
4660.513370 99.433 164.8507
4694.285371 99.376 165.0782
4728.302098 99.318 165.3362
4762.565324 99.262 165.6189
4797.076835 99.209 165.9203
4831.838432 99.160 166.2335
4866.851925 99.117 166.5516
4902.119140 99.080 166.8669
4937.641916 99.052 167.1710
4973.422105 99.033 167.4553
5009.461572 99.023 167.7104
5045.762195 99.023 167.9270
5082.325868 99.033 168.0961
5119.154496 99.051 168.2093
5156.250000 99.076 168.2596
5193.614313 99.107 168.2416
5231.249383 99.141 168.1522
5269.157173 99.175 167.9906
5307.339658 99.208 167.7591
5345.798829 99.237 167.4630
5384.536691 99.258 167.1109
5423.555263 99.271 166.7138
5462.856580 99.274 166.2855
5502.442691 99.265 165.8414
5542.315659 99.244 165.3983
5582.477563 99.212 164.9730
5622.930497 99.170 164.5829
5663.676569 99.119 164.2445
5704.717904 99.062 163.9735
5746.056642 99.002 163.7840
5787.694937 98.943 163.6881
5829.634960 98.889 163.6954
5871.878898 98.843 163.8113
5914.428953 98.812 164.0364
5957.287343 98.799 164.3652
6000.456303 98.808 164.7853
6043.938083 98.841 165.2775
6087.734950 98.901 165.8161
6131.849187 98.987 166.3710
6176.283094 99.098 166.9085
6221.038987 99.232 167.3946
6266.119200 99.385 167.7965
6311.526083 99.553 168.0848
6357.262002 99.731 168.2352
6403.329344 99.916 168.2284
6449.730508 100.104 168.0510
6496.467914 100.290 167.6942
6543.543998 100.472 167.1532
6590.961215 100.648 166.4260
6638.722037 100.816 165.5127
6686.828954 100.975 164.4145
6735.284473 101.124 163.1336
6784.091120 101.260 161.6733
6833.251441 101.385 160.0374
6882.767998 101.495 158.2308
6932.643372 101.591 156.2594
6982.880164 101.670 154.1299
7033.480992 101.732 151.8504
7084.448495 101.775 149.4298
7135.785329 101.797 146.8784
7187.494171 101.797 144.2074
7239.577717 101.774 141.4288
7292.038681 101.726 138.5550
7344.879799 101.654 135.5975
7398.103826 101.556 132.5660
7451.713536 101.435 129.4670
7505.711724 101.291 126.3016
7560.101205 101.126 123.0649
7614.884815 100.943 119.7441
7670.065409 100.745 116.3182
7725.645865 100.533 112.7570
7781.629080 100.311 109.0226
7838.017972 100.079 105.0690
7894.815481 99.839 100.8444
7952.024569 99.588 96.2911
8009.648217 99.326 91.3470
8067.689429 99.050 85.9438
8126.151233 98.757 80.0058
8185.036674 98.445 73.4456
8244.348824 98.110 66.1599
8304.090774 97.754 58.0260
8364.265639 97.377 48.9066
8424.876556 96.986 38.6697
8485.926684 96.588 27.2432
8547.419207 96.195 14.7076
8609.357330 95.824 1.3951
8671.744282 95.492 -12.0998
8734.583316 95.219 -25.0776
8797.877707 95.024 -36.9771
8861.630756 94.922 -47.5202
8925.845785 94.922 -56.6907
8990.526143 95.024 -64.6289
9055.675202 95.222 -71.5363
9121.296357 95.502 -77.6201
9187.393031 95.848 -83.0687
9253.968668 96.242 -88.0451
9321.026740 96.667 -92.6862
9388.570742 97.106 -97.1063
9456.604196 97.546 -101.3993
9525.130648 97.975 -105.6414
9594.153671 98.381 -109.8930
9663.676863 98.757 -114.2000
9733.703850 99.093 -118.5941
9804.238280 99.381 -123.0946
9875.283832 99.616 -127.7071
9946.844210 99.789 -132.4246
10018.923143 99.897 -137.2273
10091.524390 99.935 -142.0843
10164.651736 99.900 -146.9542
10238.308993 99.791 -151.7889
10312.500000 99.607 -156.5370
10387.228626 99.354 -161.1477
10462.498767 99.034 -165.5762
10538.314345 98.654 -169.7864
10614.679315 98.222 -173.7539
10691.597657 97.747 -177.4668
10769.073381 97.236 179.0740
10847.110526 96.698 175.8555
10925.713161 96.141 172.8544
11004.885382 95.572 170.0394
11084.631318 94.995 167.3735
11164.955126 94.415 164.8176
11245.860993 93.832 162.3330
11327.353138 93.247 159.8841
11409.435808 92.656 157.4405
11492.113283 92.059 154.9778
11575.389873 91.450 152.4777
11659.269920 90.825 149.9264
11743.757796 90.182 147.3124
11828.857906 89.518 144.6230
11914.574686 88.831 141.8408
12000.912606 88.121 138.9393
12087.876166 87.389 135.8791
12175.469900 86.636 132.6041
12263.698373 85.865 129.0369
12352.566187 85.082 125.0718
12442.077974 84.292 120.5659
12532.238400 83.503 115.3245
12623.052165 82.728 109.0824
12714.524005 81.981 101.4868
12806.658687 81.281 92.1079
12899.461015 80.649 80.5389
12992.935827 80.107 66.6920
13087.087996 79.676 51.2394
13181.922430 79.368 35.6879
13277.444074 79.187 21.6069
13373.657907 79.128 9.7891
13470.568945 79.182 0.2330
13568.182241 79.334 -7.4259
13666.502883 79.570 -13.6025
13765.535996 79.878 -18.6498
13865.286744 80.248 -22.8455
13965.760328 80.669 -26.4089
14066.961984 81.135 -29.5196
14168.896989 81.636 -32.3306
14271.570658 82.164 -34.9756
14374.988342 82.707 -37.5714
14479.155433 83.257 -40.2166
14584.077362 83.804 -42.9909
14689.759598 84.338 -45.9534
14796.207652 84.851 -49.1437
14903.427072 85.335 -52.5847
15011.423448 85.786 -56.2853
15120.202410 86.198 -60.2444
15229.769630 86.567 -64.4537
15340.130819 86.889 -68.9003
15451.291730 87.162 -73.5676
15563.258160 87.382 -78.4364
15676.035944 87.548 -83.4852
15789.630962 87.657 -88.6907
15904.049137 87.708 -94.0278
16019.296433 87.701 -99.4715
16135.378859 87.636 -104.9968
16252.302465 87.514 -110.5804
16370.073348 87.335 -116.2006
16488.697648 87.102 -121.8376
16608.181548 86.815 -127.4733
16728.531278 86.478 -133.0906
16849.753112 86.092 -138.6731
16971.853368 85.659 -144.2047
17094.838414 85.181 -149.6688
17218.714660 84.661 -155.0472
17343.488565 84.100 -160.3201
17469.166632 83.502 -165.4663
17595.755415 82.871 -170.4668
17723.261512 82.214 -175.3107
17851.691571 81.543 179.9954
17981.052287 80.872 175.4175
18111.350404 80.221 170.8872
18242.592715 79.612 166.2986
18374.786062 79.066 161.5173
18507.937336 78.599 156.3965
18642.053479 78.216 150.7996
18777.141484 77.910 144.6232
18913.208391 77.665 137.8163
19050.261296 77.459 130.4015
19188.307342 77.273 122.4973
19327.353727 77.091 114.3442
19467.407699 76.909 106.3228
19608.476560 76.732 98.9351
19750.567664 76.574 92.7454
19893.688419 76.454 88.2820
20037.846286 76.388 85.9448
