* Measurement data measured by REW V5.31.3
* Source: EXCL: Headset (USB-C to 3.5mm Headphone Jack Adapter), MICROPHONE (Master Volume), 0, volume: 0.250
* Format: 256k Log Swept Sine, 1 sweep at -12.0 dBFS with no timing reference
* Dated: Feb 9, 2025 6:17:52 PM
* REW Settings:
*  C-weighting compensation: Off
*  Target level: 75.0 dB
* Note: ; 
* Measurement: Satyr 2 (Geekria) L5
* Smoothing: 1/6 octave
* Frequency Step: 96 ppo
* Start Frequency: 20.0 Hz
*
* Freq(Hz) SPL(dB) Phase(degrees)
20.141602 90.915 -29.9229
20.287556 90.936 -30.1291
20.434568 90.962 -30.4067
20.582645 90.990 -30.7501
20.731796 91.017 -31.1526
20.882027 91.040 -31.6074
21.033346 91.057 -32.1072
21.185763 91.066 -32.6449
21.339284 91.067 -33.2135
21.493917 91.059 -33.8060
21.649671 91.043 -34.4157
21.806553 91.019 -35.0363
21.964572 90.989 -35.6619
22.123737 90.956 -36.2869
22.284054 90.919 -36.9067
22.445534 90.883 -37.5171
22.608183 90.847 -38.1150
22.772012 90.815 -38.6983
22.937027 90.787 -39.2661
23.103238 90.766 -39.8188
23.270654 90.752 -40.3577
23.439282 90.748 -40.8860
23.609133 90.755 -41.4074
23.780215 90.773 -41.9270
23.952536 90.803 -42.4502
24.126106 90.846 -42.9827
24.300934 90.901 -43.5300
24.477028 90.969 -44.0968
24.654399 91.047 -44.6865
24.833055 91.135 -45.3010
25.013005 91.230 -45.9403
25.194260 91.332 -46.6028
25.376828 91.437 -47.2848
25.560719 91.545 -47.9813
25.745942 91.653 -48.6865
25.932508 91.761 -49.3937
26.120426 91.866 -50.0968
26.309705 91.968 -50.7899
26.500356 92.067 -51.4685
26.692388 92.161 -52.1291
26.885812 92.250 -52.7697
27.080638 92.335 -53.3898
27.276876 92.415 -53.9897
27.474535 92.490 -54.5706
27.673627 92.562 -55.1345
27.874161 92.631 -55.6837
28.076149 92.701 -56.2208
28.279600 92.773 -56.7490
28.484526 92.851 -57.2716
28.690937 92.938 -57.7925
28.898843 93.037 -58.3157
29.108256 93.150 -58.8457
29.319186 93.280 -59.3866
29.531645 93.427 -59.9422
29.745644 93.590 -60.5150
29.961193 93.766 -61.1064
30.178304 93.953 -61.7160
30.396989 94.145 -62.3417
30.617258 94.338 -62.9800
30.839123 94.527 -63.6268
31.062596 94.705 -64.2773
31.287688 94.869 -64.9275
31.514412 95.013 -65.5743
31.742778 95.135 -66.2159
31.972800 95.232 -66.8521
32.204488 95.301 -67.4839
32.437855 95.342 -68.1131
32.672913 95.355 -68.7419
32.909674 95.339 -69.3722
33.148151 95.297 -70.0054
33.388356 95.231 -70.6418
33.630302 95.145 -71.2811
33.874001 95.041 -71.9221
34.119466 94.924 -72.5635
34.366710 94.798 -73.2040
34.615745 94.669 -73.8427
34.866585 94.540 -74.4793
35.119243 94.416 -75.1138
35.373731 94.301 -75.7468
35.630064 94.197 -76.3791
35.888254 94.108 -77.0114
36.148315 94.036 -77.6443
36.410261 93.982 -78.2782
36.674104 93.947 -78.9133
36.939860 93.934 -79.5499
37.207542 93.942 -80.1883
37.477163 93.972 -80.8290
37.748738 94.024 -81.4728
38.022281 94.099 -82.1204
38.297806 94.195 -82.7723
38.575327 94.313 -83.4286
38.854860 94.450 -84.0889
39.136419 94.605 -84.7521
39.420017 94.779 -85.4167
39.705671 94.968 -86.0809
39.993395 95.173 -86.7430
40.283203 95.391 -87.4016
40.575112 95.622 -88.0557
40.869136 95.864 -88.7049
41.165290 96.116 -89.3488
41.463591 96.375 -89.9876
41.764053 96.640 -90.6214
42.066693 96.909 -91.2505
42.371525 97.179 -91.8753
42.678567 97.447 -92.4965
42.987834 97.712 -93.1150
43.299341 97.970 -93.7319
43.613106 98.221 -94.3484
43.929145 98.460 -94.9659
44.247473 98.687 -95.5855
44.568109 98.900 -96.2082
44.891068 99.097 -96.8349
45.216367 99.279 -97.4658
45.544023 99.444 -98.1009
45.874054 99.591 -98.7396
46.206476 99.721 -99.3807
46.541307 99.834 -100.0222
46.878565 99.929 -100.6620
47.218266 100.008 -101.2979
47.560429 100.070 -101.9280
47.905072 100.118 -102.5515
48.252212 100.152 -103.1688
48.601867 100.173 -103.7813
48.954056 100.184 -104.3910
49.308798 100.185 -105.0004
49.666109 100.179 -105.6115
50.026010 100.166 -106.2256
50.388520 100.149 -106.8429
50.753656 100.129 -107.4626
51.121437 100.108 -108.0832
51.491884 100.087 -108.7026
51.865016 100.068 -109.3188
52.240851 100.052 -109.9304
52.619410 100.038 -110.5363
53.000712 100.028 -111.1365
53.384777 100.022 -111.7313
53.771625 100.019 -112.3214
54.161276 100.018 -112.9077
54.553751 100.018 -113.4908
54.949070 100.018 -114.0713
55.347254 100.018 -114.6498
55.748323 100.017 -115.2267
56.152298 100.013 -115.8026
56.559201 100.007 -116.3780
56.969052 99.998 -116.9533
57.381873 99.986 -117.5290
57.797686 99.971 -118.1052
58.216512 99.953 -118.6824
58.638373 99.931 -119.2606
59.063291 99.907 -119.8396
59.491288 99.881 -120.4193
59.922386 99.853 -120.9990
60.356608 99.823 -121.5783
60.793977 99.792 -122.1567
61.234515 99.760 -122.7339
61.678246 99.727 -123.3093
62.125192 99.694 -123.8826
62.575377 99.661 -124.4536
63.028824 99.628 -125.0219
63.485557 99.597 -125.5873
63.945599 99.567 -126.1498
64.408975 99.538 -126.7094
64.875709 99.511 -127.2661
65.345825 99.486 -127.8203
65.819348 99.464 -128.3720
66.296302 99.445 -128.9217
66.776713 99.427 -129.4694
67.260604 99.413 -130.0149
67.748002 99.401 -130.5580
68.238932 99.391 -131.0978
68.733420 99.383 -131.6337
69.231490 99.377 -132.1644
69.733170 99.373 -132.6892
70.238485 99.370 -133.2074
70.747463 99.369 -133.7187
71.260128 99.368 -134.2232
71.776508 99.369 -134.7212
72.296630 99.371 -135.2133
72.820521 99.373 -135.7001
73.348209 99.377 -136.1819
73.879720 99.381 -136.6592
74.415083 99.386 -137.1320
74.954326 99.392 -137.6003
75.497475 99.398 -138.0642
76.044561 99.404 -138.5234
76.595612 99.409 -138.9778
77.150655 99.414 -139.4274
77.709720 99.417 -139.8719
78.272837 99.418 -140.3112
78.840034 99.417 -140.7453
79.411342 99.413 -141.1742
79.986789 99.406 -141.5981
80.566406 99.396 -142.0174
81.150224 99.382 -142.4325
81.738272 99.366 -142.8439
82.330581 99.347 -143.2521
82.927182 99.328 -143.6576
83.528107 99.309 -144.0609
84.133386 99.292 -144.4623
84.743051 99.279 -144.8620
85.357134 99.274 -145.2601
85.975667 99.279 -145.6566
86.598682 99.297 -146.0517
87.226212 99.333 -146.4453
87.858289 99.388 -146.8380
88.494946 99.467 -147.2300
89.136217 99.569 -147.6218
89.782135 99.695 -148.0139
90.432733 99.845 -148.4064
91.088046 100.016 -148.7993
91.748108 100.205 -149.1925
92.412952 100.405 -149.5858
93.082615 100.613 -149.9796
93.757130 100.823 -150.3744
94.436533 101.029 -150.7709
95.120859 101.226 -151.1699
95.810144 101.411 -151.5720
96.504423 101.581 -151.9775
97.203734 101.734 -152.3865
97.908112 101.869 -152.7988
98.617595 101.987 -153.2141
99.332219 102.088 -153.6318
100.052021 102.174 -154.0515
100.777039 102.248 -154.4724
101.507311 102.311 -154.8939
102.242875 102.366 -155.3151
102.983769 102.414 -155.7352
103.730032 102.456 -156.1532
104.481702 102.494 -156.5685
105.238820 102.526 -156.9803
106.001424 102.552 -157.3886
106.769554 102.570 -157.7939
107.543250 102.580 -158.1970
108.322553 102.579 -158.5991
109.107503 102.565 -159.0014
109.898141 102.538 -159.4047
110.694508 102.497 -159.8091
111.496646 102.441 -160.2145
112.304596 102.372 -160.6204
113.118402 102.290 -161.0261
113.938104 102.196 -161.4308
114.763747 102.094 -161.8336
115.595372 101.985 -162.2337
116.433024 101.872 -162.6304
117.276746 101.757 -163.0231
118.126581 101.642 -163.4111
118.982575 101.529 -163.7943
119.844772 101.418 -164.1724
120.713217 101.310 -164.5454
121.587954 101.204 -164.9132
122.469031 101.101 -165.2755
123.356492 100.998 -165.6321
124.250384 100.895 -165.9821
125.150753 100.790 -166.3250
126.057647 100.681 -166.6599
126.971113 100.568 -166.9865
127.891198 100.449 -167.3046
128.817950 100.323 -167.6144
129.751418 100.192 -167.9163
130.691651 100.055 -168.2109
131.638696 99.913 -168.4987
132.592604 99.768 -168.7810
133.553425 99.624 -169.0589
134.521208 99.481 -169.3341
135.496004 99.345 -169.6087
136.477864 99.219 -169.8849
137.466839 99.105 -170.1650
138.462981 99.007 -170.4513
139.466340 98.928 -170.7462
140.476971 98.868 -171.0517
141.494925 98.828 -171.3694
142.520256 98.807 -171.7007
143.553016 98.802 -172.0464
144.593260 98.809 -172.4069
145.641043 98.825 -172.7819
146.696418 98.846 -173.1705
147.759441 98.866 -173.5717
148.830166 98.883 -173.9836
149.908651 98.894 -174.4045
150.994951 98.896 -174.8322
152.089123 98.888 -175.2642
153.191223 98.870 -175.6983
154.301310 98.843 -176.1324
155.419441 98.808 -176.5642
156.545674 98.766 -176.9921
157.680069 98.720 -177.4147
158.822683 98.671 -177.8309
159.973578 98.621 -178.2395
161.132813 98.570 -178.6397
162.300447 98.521 -179.0303
163.476543 98.472 -179.4105
164.661162 98.426 -179.7789
165.854364 98.381 179.8654
167.056213 98.339 179.5233
168.266772 98.299 179.1957
169.486102 98.263 178.8831
170.714268 98.229 178.5858
171.951334 98.199 178.3044
173.197364 98.172 178.0391
174.452424 98.149 177.7904
175.716578 98.129 177.5588
176.989893 98.113 177.3450
178.272434 98.099 177.1494
179.564270 98.087 176.9727
180.865467 98.075 176.8150
182.176092 98.064 176.6766
183.496216 98.052 176.5571
184.825905 98.038 176.4561
186.165229 98.022 176.3730
187.514259 98.005 176.3070
188.873065 97.987 176.2573
190.241717 97.967 176.2227
191.620287 97.948 176.2021
193.008847 97.930 176.1946
194.407468 97.913 176.1988
195.816225 97.898 176.2134
197.235190 97.886 176.2371
198.664438 97.876 176.2681
200.104042 97.868 176.3044
201.554078 97.863 176.3439
203.014622 97.858 176.3843
204.485750 97.854 176.4235
205.967538 97.850 176.4594
207.460064 97.846 176.4902
208.963405 97.840 176.5143
210.477640 97.834 176.5297
212.002848 97.827 176.5347
213.539108 97.820 176.5276
215.086500 97.811 176.5068
216.645105 97.802 176.4712
218.215005 97.792 176.4199
219.796281 97.781 176.3521
221.389015 97.769 176.2678
222.993292 97.753 176.1671
224.609193 97.735 176.0502
226.236804 97.712 175.9182
227.876209 97.684 175.7724
229.527494 97.650 175.6146
231.190745 97.609 175.4468
232.866048 97.562 175.2714
234.553491 97.508 175.0908
236.253163 97.448 174.9074
237.965150 97.382 174.7235
239.689544 97.312 174.5413
241.426433 97.239 174.3624
243.175909 97.163 174.1884
244.938062 97.086 174.0207
246.712984 97.008 173.8602
248.500768 96.932 173.7077
250.301507 96.857 173.5639
252.115295 96.785 173.4292
253.942226 96.717 173.3038
255.782396 96.652 173.1876
257.635901 96.593 173.0800
259.502837 96.540 172.9801
261.383301 96.492 172.8866
263.277392 96.451 172.7979
265.185209 96.417 172.7126
267.106850 96.390 172.6290
269.042417 96.370 172.5458
270.992009 96.356 172.4615
272.955729 96.348 172.3752
274.933678 96.344 172.2858
276.925961 96.345 172.1927
278.932681 96.350 172.0953
280.953942 96.357 171.9937
282.989850 96.367 171.8877
285.040511 96.379 171.7775
287.106032 96.393 171.6633
289.186521 96.411 171.5455
291.282086 96.432 171.4245
293.392836 96.457 171.3010
295.518881 96.488 171.1759
297.660333 96.523 171.0501
299.817302 96.563 170.9244
301.989902 96.608 170.7999
304.178245 96.655 170.6771
306.382446 96.704 170.5568
308.602620 96.752 170.4396
310.838882 96.799 170.3264
313.091348 96.842 170.2176
315.360137 96.880 170.1138
317.645367 96.912 170.0155
319.947156 96.936 169.9228
322.265625 96.951 169.8357
324.600895 96.958 169.7542
326.953086 96.955 169.6782
329.322323 96.942 169.6075
331.708729 96.918 169.5422
334.112427 96.884 169.4822
336.533543 96.840 169.4276
338.972204 96.786 169.3784
341.428536 96.722 169.3344
343.902668 96.651 169.2950
346.394729 96.572 169.2598
348.904848 96.488 169.2281
351.433156 96.401 169.1995
353.979786 96.313 169.1733
356.544869 96.227 169.1491
359.128540 96.144 169.1264
361.730934 96.069 169.1048
364.352185 96.004 169.0839
366.992431 95.951 169.0632
369.651810 95.914 169.0425
372.330459 95.893 169.0213
375.028519 95.891 168.9993
377.746130 95.907 168.9763
380.483434 95.940 168.9519
383.240574 95.989 168.9259
386.017693 96.052 168.8982
388.814937 96.127 168.8689
391.632450 96.210 168.8380
394.470380 96.299 168.8057
397.328875 96.391 168.7723
400.208084 96.483 168.7378
403.108157 96.574 168.7026
406.029245 96.663 168.6666
408.971500 96.749 168.6298
411.935076 96.831 168.5920
414.920127 96.911 168.5531
417.926810 96.988 168.5126
420.955280 97.062 168.4703
424.005695 97.136 168.4261
427.078215 97.209 168.3799
430.173000 97.282 168.3314
433.290211 97.355 168.2805
436.430010 97.428 168.2272
439.592562 97.499 168.1712
442.778031 97.569 168.1124
445.986583 97.636 168.0506
449.218386 97.697 167.9861
452.473607 97.751 167.9195
455.752418 97.796 167.8522
459.054987 97.831 167.7861
462.381489 97.854 167.7239
465.732096 97.864 167.6686
469.106983 97.862 167.6236
472.506325 97.848 167.5928
475.930301 97.822 167.5799
479.379088 97.785 167.5883
482.852867 97.740 167.6204
486.351817 97.687 167.6778
489.876123 97.630 167.7605
493.425968 97.568 167.8669
497.001536 97.505 167.9940
500.603014 97.441 168.1378
504.230589 97.377 168.2932
507.884452 97.313 168.4550
511.564792 97.249 168.6182
515.271802 97.187 168.7782
519.005673 97.124 168.9315
522.766602 97.064 169.0757
526.554785 97.005 169.2093
530.370418 96.949 169.3317
534.213700 96.897 169.4432
538.084833 96.852 169.5446
541.984018 96.813 169.6370
545.911457 96.784 169.7216
549.867357 96.763 169.8000
553.851922 96.751 169.8734
557.865362 96.748 169.9432
561.907884 96.751 170.0106
565.979700 96.760 170.0766
570.081022 96.772 170.1422
574.212064 96.785 170.2084
578.373042 96.797 170.2763
582.564171 96.807 170.3469
586.785671 96.812 170.4209
591.037762 96.812 170.4991
595.320665 96.807 170.5818
599.634604 96.794 170.6694
603.979804 96.775 170.7617
608.356491 96.750 170.8583
612.764893 96.719 170.9586
617.205240 96.682 171.0619
621.677763 96.642 171.1674
626.182696 96.599 171.2743
630.720274 96.556 171.3818
635.290733 96.514 171.4891
639.894312 96.475 171.5956
644.531250 96.441 171.7004
649.201789 96.413 171.8030
653.906173 96.393 171.9025
658.644647 96.381 171.9984
663.417457 96.377 172.0901
668.224854 96.380 172.1772
673.067086 96.390 172.2592
677.944408 96.405 172.3356
682.857073 96.423 172.4061
687.805336 96.442 172.4700
692.789457 96.461 172.5272
697.809695 96.478 172.5770
702.866312 96.492 172.6194
707.959571 96.502 172.6542
713.089738 96.507 172.6817
718.257080 96.507 172.7023
723.461867 96.502 172.7168
728.704370 96.491 172.7266
733.984862 96.476 172.7333
739.303619 96.456 172.7391
744.660918 96.433 172.7460
750.057038 96.407 172.7563
755.492260 96.379 172.7723
760.966869 96.349 172.7955
766.481148 96.318 172.8274
772.035387 96.285 172.8690
777.629873 96.251 172.9205
783.264900 96.215 172.9818
788.940760 96.176 173.0518
794.657750 96.135 173.1289
800.416168 96.090 173.2110
806.216313 96.040 173.2955
812.058489 95.987 173.3797
817.943000 95.928 173.4608
823.870152 95.865 173.5363
829.840255 95.797 173.6044
835.853619 95.725 173.6639
841.910559 95.650 173.7142
848.011390 95.571 173.7561
854.156430 95.490 173.7907
860.346000 95.407 173.8196
866.580422 95.325 173.8445
872.860020 95.244 173.8665
879.185124 95.165 173.8865
885.556062 95.090 173.9047
891.973166 95.021 173.9208
898.436771 94.958 173.9339
904.947215 94.904 173.9429
911.504835 94.858 173.9463
918.109975 94.822 173.9422
924.762978 94.796 173.9288
931.464192 94.781 173.9045
938.213966 94.776 173.8677
945.012651 94.781 173.8177
951.860602 94.795 173.7542
958.758176 94.817 173.6781
965.705733 94.846 173.5911
972.703635 94.880 173.4956
979.752246 94.920 173.3943
986.851935 94.964 173.2896
994.003071 95.011 173.1831
1001.206027 95.062 173.0761
1008.461179 95.116 172.9692
1015.768904 95.175 172.8627
1023.129584 95.238 172.7566
1030.543603 95.306 172.6508
1038.011347 95.380 172.5454
1045.533205 95.461 172.4402
1053.109569 95.548 172.3351
1060.740836 95.643 172.2303
1068.427401 95.744 172.1261
1076.169666 95.851 172.0232
1083.968035 95.963 171.9222
1091.822915 96.079 171.8237
1099.734713 96.197 171.7274
1107.703844 96.316 171.6323
1115.730723 96.435 171.5364
1123.815768 96.552 171.4365
1131.959400 96.666 171.3289
1140.162045 96.775 171.2092
1148.424129 96.878 171.0735
1156.746083 96.977 170.9182
1165.128342 97.069 170.7411
1173.571343 97.156 170.5404
1182.075524 97.237 170.3154
1190.641331 97.314 170.0662
1199.269209 97.387 169.7937
1207.959608 97.456 169.4998
1216.712981 97.521 169.1867
1225.529785 97.583 168.8575
1234.410479 97.639 168.5166
1243.355526 97.690 168.1690
1252.365393 97.736 167.8207
1261.440549 97.774 167.4778
1270.581467 97.806 167.1456
1279.788624 97.831 166.8282
1289.062500 97.849 166.5291
1298.403578 97.860 166.2505
1307.812346 97.864 165.9941
1317.289293 97.863 165.7611
1326.834914 97.856 165.5523
1336.449707 97.845 165.3686
1346.134173 97.829 165.2107
1355.888816 97.810 165.0795
1365.714145 97.788 164.9756
1375.610673 97.763 164.8985
1385.578915 97.737 164.8464
1395.619391 97.709 164.8170
1405.732624 97.680 164.8072
1415.919142 97.649 164.8148
1426.179476 97.617 164.8383
1436.514160 97.585 164.8775
1446.923734 97.553 164.9326
1457.408740 97.522 165.0039
1467.969724 97.492 165.0915
1478.607238 97.466 165.1948
1489.321836 97.442 165.3123
1500.114076 97.423 165.4420
1510.984521 97.408 165.5823
1521.933737 97.397 165.7328
1532.962297 97.390 165.8943
1544.070773 97.387 166.0689
1555.259747 97.387 166.2588
1566.529800 97.389 166.4666
1577.881521 97.394 166.6946
1589.315501 97.401 166.9445
1600.832336 97.410 167.2176
1612.432627 97.422 167.5145
1624.116978 97.436 167.8345
1635.886000 97.453 168.1752
1647.740304 97.474 168.5323
1659.680509 97.498 168.9007
1671.707238 97.527 169.2750
1683.821118 97.559 169.6514
1696.022780 97.595 170.0280
1708.312860 97.635 170.4046
1720.692000 97.678 170.7825
1733.160843 97.724 171.1631
1745.720041 97.775 171.5473
1758.370248 97.830 171.9354
1771.112124 97.888 172.3268
1783.946332 97.951 172.7200
1796.873543 98.017 173.1129
1809.894429 98.087 173.5020
1823.009670 98.160 173.8832
1836.219950 98.236 174.2515
1849.525956 98.314 174.6026
1862.928384 98.394 174.9336
1876.427931 98.476 175.2429
1890.025301 98.559 175.5300
1903.721204 98.643 175.7937
1917.516352 98.729 176.0327
1931.411466 98.816 176.2455
1945.407270 98.903 176.4320
1959.504493 98.988 176.5924
1973.703870 99.072 176.7273
1988.006142 99.153 176.8365
2002.412054 99.230 176.9198
2016.922357 99.302 176.9774
2031.537808 99.367 177.0099
2046.259169 99.426 177.0180
2061.087206 99.478 177.0016
2076.022694 99.522 176.9600
2091.066410 99.559 176.8919
2106.219139 99.589 176.7953
2121.481671 99.613 176.6684
2136.854802 99.632 176.5095
2152.339333 99.646 176.3174
2167.936071 99.657 176.0922
2183.645829 99.664 175.8343
2199.469427 99.669 175.5451
2215.407689 99.673 175.2263
2231.461446 99.675 174.8797
2247.631536 99.678 174.5066
2263.918800 99.681 174.1081
2280.324089 99.684 173.6846
2296.848258 99.688 173.2366
2313.492167 99.691 172.7647
2330.256685 99.692 172.2701
2347.142685 99.693 171.7548
2364.151049 99.690 171.2213
2381.282662 99.685 170.6732
2398.538418 99.676 170.1138
2415.919216 99.664 169.5465
2433.425962 99.648 168.9746
2451.059570 99.630 168.4008
2468.820958 99.608 167.8276
2486.711052 99.583 167.2574
2504.730786 99.558 166.6917
2522.881098 99.531 166.1312
2541.162934 99.504 165.5763
2559.577248 99.478 165.0263
2578.125000 99.454 164.4800
2596.807157 99.433 163.9351
2615.624692 99.416 163.3889
2634.578586 99.404 162.8389
2653.669829 99.396 162.2834
2672.899414 99.392 161.7222
2692.268345 99.392 161.1564
2711.777632 99.396 160.5891
2731.428290 99.401 160.0252
2751.221345 99.408 159.4714
2771.157829 99.414 158.9352
2791.238781 99.420 158.4244
2811.465248 99.422 157.9464
2831.838284 99.422 157.5075
2852.358952 99.416 157.1129
2873.028321 99.405 156.7665
2893.847468 99.387 156.4711
2914.817480 99.360 156.2292
2935.939449 99.324 156.0438
2957.214476 99.278 155.9178
2978.643672 99.221 155.8552
3000.228152 99.153 155.8605
3021.969041 99.074 155.9387
3043.867475 98.985 156.0954
3065.924593 98.886 156.3361
3088.141547 98.779 156.6657
3110.519493 98.666 157.0882
3133.059600 98.550 157.6060
3155.763041 98.433 158.2194
3178.631001 98.319 158.9256
3201.664672 98.210 159.7187
3224.865254 98.110 160.5891
3248.233957 98.021 161.5236
3271.771999 97.945 162.5060
3295.480608 97.886 163.5174
3319.361019 97.844 164.5377
3343.414477 97.820 165.5461
3367.642236 97.813 166.5231
3392.045560 97.823 167.4512
3416.625721 97.850 168.3158
3441.383999 97.891 169.1051
3466.321686 97.946 169.8107
3491.440082 98.012 170.4265
3516.740496 98.088 170.9493
3542.224247 98.172 171.3778
3567.892664 98.264 171.7128
3593.747085 98.361 171.9566
3619.788858 98.463 172.1128
3646.019340 98.567 172.1863
3672.439900 98.672 172.1830
3699.051913 98.778 172.1102
3725.856768 98.883 171.9761
3752.855862 98.985 171.7898
3780.050603 99.084 171.5610
3807.442408 99.180 171.2994
3835.032705 99.272 171.0148
3862.822933 99.359 170.7160
3890.814540 99.442 170.4108
3919.008986 99.522 170.1057
3947.407741 99.598 169.8055
3976.012284 99.671 169.5134
4004.824108 99.741 169.2306
4033.844715 99.808 168.9570
4063.075616 99.873 168.6911
4092.518337 99.936 168.4305
4122.174412 99.996 168.1724
4152.045387 100.052 167.9141
4182.132820 100.105 167.6535
4212.438278 100.153 167.3897
4242.963342 100.197 167.1233
4273.709604 100.234 166.8563
4304.678665 100.266 166.5922
4335.872141 100.291 166.3358
4367.291658 100.308 166.0924
4398.938854 100.319 165.8672
4430.815378 100.323 165.6646
4462.922893 100.321 165.4878
4495.263072 100.311 165.3387
4527.837601 100.296 165.2181
4560.648179 100.275 165.1253
4593.696515 100.248 165.0587
4626.984334 100.217 165.0158
4660.513370 100.181 164.9937
4694.285371 100.142 164.9890
4728.302098 100.099 164.9979
4762.565324 100.055 165.0167
4797.076835 100.009 165.0415
4831.838432 99.964 165.0690
4866.851925 99.920 165.0958
4902.119140 99.877 165.1188
4937.641916 99.838 165.1346
4973.422105 99.803 165.1398
5009.461572 99.773 165.1305
5045.762195 99.748 165.1021
5082.325868 99.728 165.0500
5119.154496 99.714 164.9694
5156.250000 99.704 164.8558
5193.614313 99.697 164.7058
5231.249383 99.692 164.5172
5269.157173 99.688 164.2893
5307.339658 99.683 164.0239
5345.798829 99.675 163.7249
5384.536691 99.662 163.3986
5423.555263 99.643 163.0536
5462.856580 99.616 162.7005
5502.442691 99.582 162.3510
5542.315659 99.539 162.0178
5582.477563 99.490 161.7139
5622.930497 99.435 161.4516
5663.676569 99.376 161.2426
5704.717904 99.316 161.0972
5746.056642 99.257 161.0240
5787.694937 99.203 161.0299
5829.634960 99.158 161.1192
5871.878898 99.124 161.2930
5914.428953 99.107 161.5485
5957.287343 99.109 161.8776
6000.456303 99.132 162.2675
6043.938083 99.179 162.7002
6087.734950 99.250 163.1534
6131.849187 99.344 163.6015
6176.283094 99.461 164.0174
6221.038987 99.596 164.3737
6266.119200 99.748 164.6443
6311.526083 99.911 164.8062
6357.262002 100.083 164.8398
6403.329344 100.259 164.7300
6449.730508 100.437 164.4654
6496.467914 100.614 164.0384
6543.543998 100.787 163.4439
6590.961215 100.956 162.6790
6638.722037 101.118 161.7415
6686.828954 101.274 160.6304
6735.284473 101.422 159.3449
6784.091120 101.562 157.8844
6833.251441 101.693 156.2490
6882.767998 101.814 154.4397
6932.643372 101.925 152.4582
6982.880164 102.023 150.3077
7033.480992 102.107 147.9927
7084.448495 102.176 145.5193
7135.785329 102.228 142.8950
7187.494171 102.261 140.1291
7239.577717 102.274 137.2315
7292.038681 102.265 134.2128
7344.879799 102.235 131.0827
7398.103826 102.183 127.8490
7451.713536 102.112 124.5161
7505.711724 102.021 121.0834
7560.101205 101.914 117.5441
7614.884815 101.792 113.8842
7670.065409 101.659 110.0822
7725.645865 101.517 106.1095
7781.629080 101.366 101.9312
7838.017972 101.208 97.5078
7894.815481 101.040 92.7974
7952.024569 100.861 87.7571
8009.648217 100.668 82.3456
8067.689429 100.456 76.5244
8126.151233 100.221 70.2588
8185.036674 99.959 63.5190
8244.348824 99.666 56.2809
8304.090774 99.342 48.5292
8364.265639 98.986 40.2617
8424.876556 98.602 31.4982
8485.926684 98.196 22.2921
8547.419207 97.776 12.7428
8609.357330 97.353 3.0013
8671.744282 96.944 -6.7363
8734.583316 96.565 -16.2543
8797.877707 96.234 -25.3513
8861.630756 95.970 -33.8734
8925.845785 95.788 -41.7314
8990.526143 95.700 -48.9016
9055.675202 95.710 -55.4133
9121.296357 95.816 -61.3326
9187.393031 96.007 -66.7462
9253.968668 96.271 -71.7498
9321.026740 96.590 -76.4390
9388.570742 96.947 -80.9044
9456.604196 97.326 -85.2277
9525.130648 97.711 -89.4799
9594.153671 98.090 -93.7206
9663.676863 98.452 -97.9973
9733.703850 98.784 -102.3451
9804.238280 99.080 -106.7876
9875.283832 99.330 -111.3356
9946.844210 99.528 -115.9879
10018.923143 99.668 -120.7316
10091.524390 99.745 -125.5420
10164.651736 99.755 -130.3848
10238.308993 99.697 -135.2178
10312.500000 99.570 -139.9947
10387.228626 99.376 -144.6682
10462.498767 99.120 -149.1954
10538.314345 98.806 -153.5405
10614.679315 98.442 -157.6780
10691.597657 98.036 -161.5944
10769.073381 97.595 -165.2882
10847.110526 97.127 -168.7695
10925.713161 96.640 -172.0581
11004.885382 96.140 -175.1817
11084.631318 95.630 -178.1731
11164.955126 95.114 178.9328
11245.860993 94.593 176.1023
11327.353138 94.065 173.3051
11409.435808 93.528 170.5173
11492.113283 92.978 167.7224
11575.389873 92.410 164.9124
11659.269920 91.820 162.0870
11743.757796 91.203 159.2528
11828.857906 90.556 156.4203
11914.574686 89.876 153.6017
12000.912606 89.160 150.8075
12087.876166 88.409 148.0436
12175.469900 87.622 145.3081
12263.698373 86.800 142.5878
12352.566187 85.946 139.8530
12442.077974 85.063 137.0508
12532.238400 84.157 134.0948
12623.052165 83.237 130.8506
12714.524005 82.315 127.1179
12806.658687 81.410 122.6107
12899.461015 80.546 116.9357
12992.935827 79.753 109.5851
13087.087996 79.064 99.9787
13181.922430 78.515 87.6677
13277.444074 78.131 72.8168
13373.657907 77.925 56.6877
13470.568945 77.889 41.2256
13568.182241 77.999 27.8190
13666.502883 78.221 16.7725
13765.535996 78.518 7.7474
13865.286744 78.858 0.2626
13965.760328 79.215 -6.0892
14066.961984 79.572 -11.6017
14168.896989 79.919 -16.4731
14271.570658 80.252 -20.8344
14374.988342 80.572 -24.7756
14479.155433 80.887 -28.3665
14584.077362 81.204 -31.6725
14689.759598 81.529 -34.7655
14796.207652 81.868 -37.7272
14903.427072 82.221 -40.6459
15011.423448 82.584 -43.6091
15120.202410 82.950 -46.6956
15229.769630 83.307 -49.9674
15340.130819 83.644 -53.4676
15451.291730 83.952 -57.2186
15563.258160 84.220 -61.2248
15676.035944 84.441 -65.4751
15789.630962 84.608 -69.9468
15904.049137 84.717 -74.6098
16019.296433 84.765 -79.4296
16135.378859 84.753 -84.3710
16252.302465 84.679 -89.4008
16370.073348 84.547 -94.4889
16488.697648 84.357 -99.6089
16608.181548 84.113 -104.7377
16728.531278 83.815 -109.8538
16849.753112 83.467 -114.9366
16971.853368 83.070 -119.9658
17094.838414 82.628 -124.9222
17218.714660 82.143 -129.7896
17343.488565 81.620 -134.5566
17469.166632 81.068 -139.2217
17595.755415 80.494 -143.7961
17723.261512 79.910 -148.3085
17851.691571 79.331 -152.8064
17981.052287 78.771 -157.3562
18111.350404 78.244 -162.0400
18242.592715 77.762 -166.9475
18374.786062 77.332 -172.1681
18507.937336 76.954 -177.7805
18642.053479 76.621 176.1548
18777.141484 76.323 169.6001
18913.208391 76.045 162.5472
19050.261296 75.776 155.0281
19188.307342 75.507 147.1338
19327.353727 75.235 139.0475
19467.407699 74.962 131.0784
19608.476560 74.702 123.6768
19750.567664 74.474 117.3999
19893.688419 74.302 112.8198
20037.846286 74.210 110.4011
