* Measurement data measured by REW V5.31.3
* Source: EXCL: Headset (USB-C to 3.5mm Headphone Jack Adapter), MICROPHONE (Master Volume), 0, volume: 0.250
* Format: 256k Log Swept Sine, 1 sweep at -12.0 dBFS with no timing reference
* Dated: Feb 9, 2025 6:21:46 PM
* REW Settings:
*  C-weighting compensation: Off
*  Target level: 75.0 dB
* Note: ; 
* Measurement: Satyr 2 (Geekria) L10
* Smoothing: 1/6 octave
* Frequency Step: 96 ppo
* Start Frequency: 20.0 Hz
*
* Freq(Hz) SPL(dB) Phase(degrees)
20.141602 91.443 -28.0041
20.287556 91.459 -28.2106
20.434568 91.479 -28.4874
20.582645 91.498 -28.8276
20.731796 91.515 -29.2232
20.882027 91.525 -29.6667
21.033346 91.527 -30.1507
21.185763 91.519 -30.6691
21.339284 91.502 -31.2171
21.493917 91.476 -31.7909
21.649671 91.442 -32.3882
21.806553 91.402 -33.0080
21.964572 91.359 -33.6499
22.123737 91.314 -34.3141
22.284054 91.269 -35.0010
22.445534 91.228 -35.7106
22.608183 91.191 -36.4423
22.772012 91.161 -37.1945
22.937027 91.137 -37.9647
23.103238 91.122 -38.7491
23.270654 91.116 -39.5435
23.439282 91.120 -40.3428
23.609133 91.134 -41.1418
23.780215 91.159 -41.9356
23.952536 91.196 -42.7198
24.126106 91.245 -43.4909
24.300934 91.306 -44.2467
24.477028 91.379 -44.9858
24.654399 91.462 -45.7080
24.833055 91.555 -46.4140
25.013005 91.657 -47.1048
25.194260 91.764 -47.7816
25.376828 91.876 -48.4456
25.560719 91.989 -49.0975
25.745942 92.102 -49.7376
25.932508 92.212 -50.3656
26.120426 92.318 -50.9807
26.309705 92.419 -51.5819
26.500356 92.514 -52.1678
26.692388 92.602 -52.7377
26.885812 92.683 -53.2906
27.080638 92.759 -53.8267
27.276876 92.830 -54.3467
27.474535 92.897 -54.8522
27.673627 92.963 -55.3461
27.874161 93.031 -55.8321
28.076149 93.102 -56.3151
28.279600 93.181 -56.8006
28.484526 93.270 -57.2944
28.690937 93.371 -57.8023
28.898843 93.485 -58.3290
29.108256 93.615 -58.8780
29.319186 93.759 -59.4508
29.531645 93.917 -60.0467
29.745644 94.087 -60.6628
29.961193 94.264 -61.2941
30.178304 94.446 -61.9346
30.396989 94.630 -62.5773
30.617258 94.810 -63.2158
30.839123 94.984 -63.8449
31.062596 95.147 -64.4610
31.287688 95.297 -65.0630
31.514412 95.429 -65.6517
31.742778 95.543 -66.2302
31.972800 95.635 -66.8026
32.204488 95.705 -67.3738
32.437855 95.750 -67.9484
32.672913 95.771 -68.5304
32.909674 95.767 -69.1227
33.148151 95.740 -69.7268
33.388356 95.690 -70.3434
33.630302 95.620 -70.9720
33.874001 95.533 -71.6119
34.119466 95.430 -72.2620
34.366710 95.315 -72.9209
34.615745 95.191 -73.5877
34.866585 95.064 -74.2612
35.119243 94.935 -74.9403
35.373731 94.810 -75.6242
35.630064 94.692 -76.3119
35.888254 94.586 -77.0022
36.148315 94.495 -77.6941
36.410261 94.424 -78.3865
36.674104 94.375 -79.0784
36.939860 94.351 -79.7691
37.207542 94.353 -80.4578
37.477163 94.381 -81.1441
37.748738 94.436 -81.8275
38.022281 94.515 -82.5071
38.297806 94.617 -83.1816
38.575327 94.740 -83.8495
38.854860 94.882 -84.5088
39.136419 95.040 -85.1576
39.420017 95.214 -85.7949
39.705671 95.401 -86.4204
39.993395 95.601 -87.0354
40.283203 95.813 -87.6424
40.575112 96.036 -88.2445
40.869136 96.270 -88.8456
41.165290 96.513 -89.4489
41.463591 96.763 -90.0574
41.764053 97.019 -90.6730
42.066693 97.279 -91.2968
42.371525 97.541 -91.9293
42.678567 97.802 -92.5702
42.987834 98.060 -93.2189
43.299341 98.312 -93.8739
43.613106 98.557 -94.5337
43.929145 98.791 -95.1958
44.247473 99.015 -95.8581
44.568109 99.225 -96.5181
44.891068 99.422 -97.1736
45.216367 99.604 -97.8231
45.544023 99.770 -98.4652
45.874054 99.921 -99.0991
46.206476 100.056 -99.7249
46.541307 100.175 -100.3433
46.878565 100.279 -100.9556
47.218266 100.366 -101.5641
47.560429 100.439 -102.1712
47.905072 100.496 -102.7790
48.252212 100.539 -103.3892
48.601867 100.569 -104.0020
48.954056 100.587 -104.6165
49.308798 100.593 -105.2310
49.666109 100.589 -105.8429
50.026010 100.577 -106.4502
50.388520 100.560 -107.0508
50.753656 100.538 -107.6437
51.121437 100.514 -108.2287
51.491884 100.491 -108.8064
51.865016 100.468 -109.3778
52.240851 100.449 -109.9447
52.619410 100.432 -110.5091
53.000712 100.420 -111.0732
53.384777 100.411 -111.6390
53.771625 100.405 -112.2086
54.161276 100.401 -112.7834
54.553751 100.398 -113.3643
54.949070 100.396 -113.9516
55.347254 100.393 -114.5448
55.748323 100.388 -115.1430
56.152298 100.382 -115.7447
56.559201 100.374 -116.3482
56.969052 100.364 -116.9519
57.381873 100.352 -117.5540
57.797686 100.338 -118.1532
58.216512 100.321 -118.7483
58.638373 100.303 -119.3386
59.063291 100.282 -119.9240
59.491288 100.259 -120.5043
59.922386 100.234 -121.0793
60.356608 100.208 -121.6492
60.793977 100.179 -122.2138
61.234515 100.149 -122.7734
61.678246 100.118 -123.3285
62.125192 100.087 -123.8799
62.575377 100.055 -124.4288
63.028824 100.023 -124.9761
63.485557 99.992 -125.5228
63.945599 99.963 -126.0693
64.408975 99.935 -126.6153
64.875709 99.909 -127.1604
65.345825 99.886 -127.7038
65.819348 99.866 -128.2450
66.296302 99.849 -128.7835
66.776713 99.836 -129.3195
67.260604 99.825 -129.8531
67.748002 99.817 -130.3847
68.238932 99.811 -130.9143
68.733420 99.808 -131.4421
69.231490 99.806 -131.9682
69.733170 99.807 -132.4929
70.238485 99.808 -133.0165
70.747463 99.811 -133.5396
71.260128 99.814 -134.0623
71.776508 99.818 -134.5847
72.296630 99.823 -135.1063
72.820521 99.828 -135.6261
73.348209 99.833 -136.1429
73.879720 99.839 -136.6559
74.415083 99.844 -137.1641
74.954326 99.850 -137.6668
75.497475 99.855 -138.1637
76.044561 99.859 -138.6543
76.595612 99.862 -139.1381
77.150655 99.864 -139.6147
77.709720 99.863 -140.0836
78.272837 99.860 -140.5447
78.840034 99.855 -140.9979
79.411342 99.846 -141.4433
79.986789 99.835 -141.8809
80.566406 99.820 -142.3112
81.150224 99.803 -142.7341
81.738272 99.783 -143.1498
82.330581 99.760 -143.5585
82.927182 99.737 -143.9604
83.528107 99.715 -144.3559
84.133386 99.695 -144.7457
84.743051 99.679 -145.1308
85.357134 99.671 -145.5122
85.975667 99.673 -145.8909
86.598682 99.689 -146.2681
87.226212 99.723 -146.6446
87.858289 99.777 -147.0212
88.494946 99.853 -147.3984
89.136217 99.955 -147.7767
89.782135 100.081 -148.1563
90.432733 100.231 -148.5373
91.088046 100.402 -148.9196
91.748108 100.591 -149.3032
92.412952 100.793 -149.6877
93.082615 101.001 -150.0730
93.757130 101.212 -150.4592
94.436533 101.419 -150.8464
95.120859 101.618 -151.2347
95.810144 101.804 -151.6245
96.504423 101.975 -152.0161
97.203734 102.129 -152.4094
97.908112 102.265 -152.8047
98.617595 102.384 -153.2020
99.332219 102.487 -153.6012
100.052021 102.575 -154.0023
100.777039 102.651 -154.4054
101.507311 102.716 -154.8105
102.242875 102.773 -155.2177
102.983769 102.822 -155.6269
103.730032 102.866 -156.0382
104.481702 102.904 -156.4513
105.238820 102.937 -156.8661
106.001424 102.963 -157.2824
106.769554 102.982 -157.6998
107.543250 102.992 -158.1176
108.322553 102.991 -158.5356
109.107503 102.978 -158.9531
109.898141 102.951 -159.3701
110.694508 102.911 -159.7863
111.496646 102.857 -160.2019
112.304596 102.789 -160.6169
113.118402 102.709 -161.0316
113.938104 102.618 -161.4460
114.763747 102.518 -161.8600
115.595372 102.411 -162.2732
116.433024 102.300 -162.6849
117.276746 102.186 -163.0943
118.126581 102.072 -163.5006
118.982575 101.959 -163.9028
119.844772 101.847 -164.3002
120.713217 101.737 -164.6918
121.587954 101.630 -165.0770
122.469031 101.524 -165.4553
123.356492 101.419 -165.8262
124.250384 101.313 -166.1897
125.150753 101.205 -166.5455
126.057647 101.094 -166.8934
126.971113 100.978 -167.2330
127.891198 100.857 -167.5634
128.817950 100.730 -167.8837
129.751418 100.597 -168.1931
130.691651 100.458 -168.4913
131.638696 100.314 -168.7786
132.592604 100.168 -169.0565
133.553425 100.022 -169.3269
134.521208 99.878 -169.5925
135.496004 99.740 -169.8564
136.477864 99.612 -170.1216
137.466839 99.497 -170.3913
138.462981 99.398 -170.6684
139.466340 99.318 -170.9554
140.476971 99.259 -171.2547
141.494925 99.219 -171.5680
142.520256 99.198 -171.8965
143.553016 99.194 -172.2407
144.593260 99.202 -172.6008
145.641043 99.220 -172.9763
146.696418 99.241 -173.3661
147.759441 99.263 -173.7689
148.830166 99.281 -174.1827
149.908651 99.293 -174.6055
150.994951 99.296 -175.0352
152.089123 99.289 -175.4697
153.191223 99.272 -175.9068
154.301310 99.246 -176.3442
155.419441 99.212 -176.7799
156.545674 99.172 -177.2121
157.680069 99.127 -177.6390
158.822683 99.079 -178.0591
159.973578 99.029 -178.4710
161.132813 98.980 -178.8738
162.300447 98.930 -179.2666
163.476543 98.882 -179.6488
164.661162 98.836 179.9803
165.854364 98.791 179.6212
167.056213 98.748 179.2748
168.266772 98.708 178.9416
169.486102 98.671 178.6224
170.714268 98.637 178.3181
171.951334 98.606 178.0292
173.197364 98.579 177.7562
174.452424 98.556 177.4995
175.716578 98.536 177.2593
176.989893 98.520 177.0358
178.272434 98.506 176.8293
179.564270 98.494 176.6398
180.865467 98.482 176.4675
182.176092 98.471 176.3123
183.496216 98.459 176.1742
184.825905 98.445 176.0528
186.165229 98.429 175.9477
187.514259 98.411 175.8585
188.873065 98.392 175.7844
190.241717 98.372 175.7246
191.620287 98.352 175.6783
193.008847 98.331 175.6443
194.407468 98.312 175.6217
195.816225 98.295 175.6091
197.235190 98.279 175.6049
198.664438 98.265 175.6072
200.104042 98.252 175.6137
201.554078 98.241 175.6220
203.014622 98.231 175.6300
204.485750 98.221 175.6357
205.967538 98.211 175.6381
207.460064 98.200 175.6360
208.963405 98.187 175.6289
210.477640 98.173 175.6161
212.002848 98.156 175.5973
213.539108 98.138 175.5721
215.086500 98.119 175.5405
216.645105 98.097 175.5027
218.215005 98.075 175.4594
219.796281 98.050 175.4110
221.389015 98.024 175.3587
222.993292 97.995 175.3036
224.609193 97.963 175.2468
226.236804 97.927 175.1895
227.876209 97.886 175.1327
229.527494 97.840 175.0769
231.190745 97.789 175.0225
232.866048 97.732 174.9698
234.553491 97.670 174.9186
236.253163 97.604 174.8688
237.965150 97.535 174.8198
239.689544 97.463 174.7708
241.426433 97.390 174.7208
243.175909 97.317 174.6689
244.938062 97.245 174.6140
246.712984 97.175 174.5553
248.500768 97.107 174.4921
250.301507 97.043 174.4237
252.115295 96.983 174.3496
253.942226 96.928 174.2693
255.782396 96.878 174.1823
257.635901 96.833 174.0882
259.502837 96.794 173.9868
261.383301 96.762 173.8777
263.277392 96.735 173.7612
265.185209 96.715 173.6372
267.106850 96.701 173.5059
269.042417 96.692 173.3677
270.992009 96.688 173.2228
272.955729 96.688 173.0717
274.933678 96.692 172.9149
276.925961 96.698 172.7532
278.932681 96.706 172.5878
280.953942 96.715 172.4200
282.989850 96.726 172.2514
285.040511 96.737 172.0835
287.106032 96.750 171.9175
289.186521 96.764 171.7545
291.282086 96.782 171.5950
293.392836 96.804 171.4398
295.518881 96.830 171.2894
297.660333 96.860 171.1440
299.817302 96.896 171.0039
301.989902 96.935 170.8693
304.178245 96.977 170.7403
306.382446 97.021 170.6171
308.602620 97.065 170.5001
310.838882 97.108 170.3899
313.091348 97.146 170.2869
315.360137 97.180 170.1917
317.645367 97.207 170.1049
319.947156 97.227 170.0269
322.265625 97.238 169.9576
324.600895 97.240 169.8973
326.953086 97.233 169.8455
329.322323 97.216 169.8021
331.708729 97.189 169.7666
334.112427 97.152 169.7384
336.533543 97.105 169.7166
338.972204 97.049 169.7002
341.428536 96.984 169.6881
343.902668 96.912 169.6792
346.394729 96.833 169.6727
348.904848 96.750 169.6682
351.433156 96.663 169.6651
353.979786 96.576 169.6633
356.544869 96.491 169.6625
359.128540 96.410 169.6625
361.730934 96.336 169.6631
364.352185 96.273 169.6639
366.992431 96.222 169.6644
369.651810 96.187 169.6639
372.330459 96.169 169.6620
375.028519 96.169 169.6579
377.746130 96.188 169.6509
380.483434 96.224 169.6406
383.240574 96.275 169.6264
386.017693 96.341 169.6081
388.814937 96.418 169.5855
391.632450 96.502 169.5587
394.470380 96.593 169.5278
397.328875 96.685 169.4934
400.208084 96.779 169.4558
403.108157 96.871 169.4153
406.029245 96.960 169.3722
408.971500 97.045 169.3263
411.935076 97.127 169.2774
414.920127 97.205 169.2254
417.926810 97.279 169.1701
420.955280 97.350 169.1115
424.005695 97.419 169.0498
427.078215 97.485 168.9858
430.173000 97.551 168.9205
433.290211 97.615 168.8557
436.430010 97.678 168.7935
439.592562 97.738 168.7366
442.778031 97.795 168.6881
445.986583 97.848 168.6514
449.218386 97.896 168.6296
452.473607 97.936 168.6252
455.752418 97.969 168.6403
459.054987 97.993 168.6760
462.381489 98.008 168.7326
465.732096 98.013 168.8093
469.106983 98.008 168.9048
472.506325 97.995 169.0172
475.930301 97.973 169.1445
479.379088 97.945 169.2850
482.852867 97.910 169.4367
486.351817 97.871 169.5979
489.876123 97.828 169.7666
493.425968 97.783 169.9407
497.001536 97.737 170.1176
500.603014 97.690 170.2944
504.230589 97.642 170.4678
507.884452 97.594 170.6349
511.564792 97.546 170.7929
515.271802 97.496 170.9399
519.005673 97.446 171.0746
522.766602 97.396 171.1965
526.554785 97.346 171.3058
530.370418 97.298 171.4034
534.213700 97.254 171.4903
538.084833 97.214 171.5679
541.984018 97.181 171.6377
545.911457 97.155 171.7011
549.867357 97.138 171.7596
553.851922 97.130 171.8147
557.865362 97.129 171.8674
561.907884 97.135 171.9188
565.979700 97.146 171.9699
570.081022 97.160 172.0217
574.212064 97.175 172.0750
578.373042 97.188 172.1310
582.564171 97.199 172.1903
586.785671 97.206 172.2537
591.037762 97.207 172.3217
595.320665 97.201 172.3947
599.634604 97.189 172.4729
603.979804 97.170 172.5562
608.356491 97.145 172.6446
612.764893 97.114 172.7377
617.205240 97.077 172.8351
621.677763 97.037 172.9364
626.182696 96.994 173.0409
630.720274 96.950 173.1479
635.290733 96.907 173.2568
639.894312 96.868 173.3665
644.531250 96.833 173.4765
649.201789 96.804 173.5861
653.906173 96.783 173.6948
658.644647 96.771 173.8024
663.417457 96.766 173.9086
668.224854 96.768 174.0132
673.067086 96.778 174.1158
677.944408 96.792 174.2155
682.857073 96.810 174.3116
687.805336 96.829 174.4028
692.789457 96.849 174.4883
697.809695 96.868 174.5670
702.866312 96.883 174.6380
707.959571 96.896 174.7008
713.089738 96.904 174.7550
718.257080 96.907 174.8009
723.461867 96.905 174.8390
728.704370 96.898 174.8704
733.984862 96.887 174.8966
739.303619 96.873 174.9193
744.660918 96.855 174.9400
750.057038 96.834 174.9606
755.492260 96.812 174.9826
760.966869 96.788 175.0071
766.481148 96.762 175.0356
772.035387 96.734 175.0688
777.629873 96.705 175.1077
783.264900 96.673 175.1526
788.940760 96.638 175.2037
794.657750 96.599 175.2606
800.416168 96.555 175.3221
806.216313 96.507 175.3869
812.058489 96.454 175.4529
817.943000 96.395 175.5179
823.870152 96.331 175.5801
829.840255 96.263 175.6376
835.853619 96.189 175.6897
841.910559 96.112 175.7360
848.011390 96.031 175.7770
854.156430 95.948 175.8135
860.346000 95.865 175.8463
866.580422 95.781 175.8762
872.860020 95.699 175.9036
879.185124 95.619 175.9289
885.556062 95.544 175.9520
891.973166 95.473 175.9730
898.436771 95.409 175.9915
904.947215 95.352 176.0073
911.504835 95.304 176.0197
918.109975 95.266 176.0277
924.762978 95.237 176.0306
931.464192 95.219 176.0273
938.213966 95.211 176.0170
945.012651 95.214 175.9988
951.860602 95.226 175.9724
958.758176 95.247 175.9374
965.705733 95.275 175.8943
972.703635 95.311 175.8440
979.752246 95.351 175.7871
986.851935 95.397 175.7248
994.003071 95.447 175.6577
1001.206027 95.501 175.5865
1008.461179 95.559 175.5117
1015.768904 95.622 175.4335
1023.129584 95.688 175.3522
1030.543603 95.760 175.2679
1038.011347 95.837 175.1806
1045.533205 95.921 175.0907
1053.109569 96.011 174.9985
1060.740836 96.107 174.9050
1068.427401 96.209 174.8116
1076.169666 96.317 174.7202
1083.968035 96.429 174.6332
1091.822915 96.544 174.5525
1099.734713 96.661 174.4794
1107.703844 96.779 174.4140
1115.730723 96.897 174.3551
1123.815768 97.013 174.3002
1131.959400 97.126 174.2453
1140.162045 97.235 174.1860
1148.424129 97.340 174.1175
1156.746083 97.441 174.0352
1165.128342 97.537 173.9348
1173.571343 97.629 173.8129
1182.075524 97.717 173.6663
1190.641331 97.802 173.4933
1199.269209 97.885 173.2932
1207.959608 97.964 173.0662
1216.712981 98.040 172.8143
1225.529785 98.113 172.5405
1234.410479 98.182 172.2496
1243.355526 98.246 171.9471
1252.365393 98.304 171.6393
1261.440549 98.356 171.3318
1270.581467 98.402 171.0295
1279.788624 98.442 170.7362
1289.062500 98.474 170.4547
1298.403578 98.501 170.1874
1307.812346 98.520 169.9361
1317.289293 98.534 169.7026
1326.834914 98.542 169.4882
1336.449707 98.546 169.2939
1346.134173 98.546 169.1206
1355.888816 98.542 168.9681
1365.714145 98.535 168.8357
1375.610673 98.526 168.7216
1385.578915 98.515 168.6237
1395.619391 98.501 168.5400
1405.732624 98.485 168.4692
1415.919142 98.467 168.4110
1426.179476 98.446 168.3663
1436.514160 98.424 168.3363
1446.923734 98.401 168.3223
1457.408740 98.379 168.3247
1467.969724 98.358 168.3433
1478.607238 98.339 168.3766
1489.321836 98.323 168.4231
1500.114076 98.310 168.4807
1510.984521 98.301 168.5487
1521.933737 98.296 168.6274
1532.962297 98.293 168.7187
1544.070773 98.294 168.8245
1555.259747 98.298 168.9473
1566.529800 98.304 169.0889
1577.881521 98.313 169.2512
1589.315501 98.323 169.4352
1600.832336 98.336 169.6415
1612.432627 98.351 169.8696
1624.116978 98.369 170.1174
1635.886000 98.389 170.3816
1647.740304 98.412 170.6578
1659.680509 98.438 170.9424
1671.707238 98.468 171.2324
1683.821118 98.499 171.5266
1696.022780 98.534 171.8250
1708.312860 98.572 172.1280
1720.692000 98.614 172.4364
1733.160843 98.659 172.7506
1745.720041 98.708 173.0706
1758.370248 98.761 173.3958
1771.112124 98.818 173.7250
1783.946332 98.879 174.0562
1796.873543 98.944 174.3861
1809.894429 99.012 174.7109
1823.009670 99.083 175.0257
1836.219950 99.156 175.3265
1849.525956 99.231 175.6105
1862.928384 99.307 175.8760
1876.427931 99.385 176.1213
1890.025301 99.464 176.3445
1903.721204 99.545 176.5438
1917.516352 99.626 176.7175
1931.411466 99.707 176.8657
1945.407270 99.787 176.9892
1959.504493 99.866 177.0888
1973.703870 99.943 177.1652
1988.006142 100.016 177.2189
2002.412054 100.085 177.2511
2016.922357 100.148 177.2628
2031.537808 100.205 177.2551
2046.259169 100.255 177.2275
2061.087206 100.298 177.1787
2076.022694 100.334 177.1066
2091.066410 100.364 177.0088
2106.219139 100.387 176.8829
2121.481671 100.403 176.7269
2136.854802 100.415 176.5394
2152.339333 100.421 176.3196
2167.936071 100.423 176.0677
2183.645829 100.423 175.7844
2199.469427 100.420 175.4706
2215.407689 100.415 175.1279
2231.461446 100.410 174.7576
2247.631536 100.405 174.3604
2263.918800 100.400 173.9370
2280.324089 100.395 173.4874
2296.848258 100.389 173.0125
2313.492167 100.382 172.5139
2330.256685 100.374 171.9940
2347.142685 100.363 171.4563
2364.151049 100.349 170.9044
2381.282662 100.331 170.3425
2398.538418 100.309 169.7741
2415.919216 100.284 169.2031
2433.425962 100.255 168.6329
2451.059570 100.222 168.0668
2468.820958 100.187 167.5074
2486.711052 100.149 166.9570
2504.730786 100.110 166.4167
2522.881098 100.070 165.8872
2541.162934 100.031 165.3681
2559.577248 99.994 164.8581
2578.125000 99.959 164.3546
2596.807157 99.928 163.8546
2615.624692 99.901 163.3550
2634.578586 99.880 162.8529
2653.669829 99.863 162.3467
2672.899414 99.852 161.8359
2692.268345 99.845 161.3218
2711.777632 99.842 160.8071
2731.428290 99.841 160.2961
2751.221345 99.843 159.7946
2771.157829 99.845 159.3089
2791.238781 99.847 158.8458
2811.465248 99.847 158.4124
2831.838284 99.843 158.0147
2852.358952 99.834 157.6583
2873.028321 99.820 157.3476
2893.847468 99.799 157.0866
2914.817480 99.769 156.8788
2935.939449 99.729 156.7277
2957.214476 99.680 156.6371
2978.643672 99.620 156.6113
3000.228152 99.548 156.6548
3021.969041 99.466 156.7726
3043.867475 99.375 156.9696
3065.924593 99.274 157.2503
3088.141547 99.165 157.6185
3110.519493 99.052 158.0773
3133.059600 98.935 158.6280
3155.763041 98.817 159.2701
3178.631001 98.702 160.0008
3201.664672 98.592 160.8142
3224.865254 98.490 161.7012
3248.233957 98.399 162.6494
3271.771999 98.321 163.6436
3295.480608 98.258 164.6664
3319.361019 98.212 165.6989
3343.414477 98.182 166.7221
3367.642236 98.170 167.7177
3392.045560 98.173 168.6693
3416.625721 98.193 169.5627
3441.383999 98.227 170.3865
3466.321686 98.274 171.1316
3491.440082 98.334 171.7913
3516.740496 98.403 172.3612
3542.224247 98.482 172.8393
3567.892664 98.568 173.2253
3593.747085 98.660 173.5208
3619.788858 98.757 173.7290
3646.019340 98.857 173.8545
3672.439900 98.958 173.9031
3699.051913 99.060 173.8818
3725.856768 99.161 173.7988
3752.855862 99.259 173.6630
3780.050603 99.356 173.4838
3807.442408 99.448 173.2708
3835.032705 99.537 173.0333
3862.822933 99.622 172.7797
3890.814540 99.702 172.5172
3919.008986 99.779 172.2518
3947.407741 99.852 171.9880
3976.012284 99.921 171.7288
4004.824108 99.986 171.4758
4033.844715 100.048 171.2298
4063.075616 100.106 170.9905
4092.518337 100.161 170.7573
4122.174412 100.211 170.5292
4152.045387 100.257 170.3055
4182.132820 100.298 170.0859
4212.438278 100.333 169.8709
4242.963342 100.362 169.6623
4273.709604 100.386 169.4628
4304.678665 100.402 169.2768
4335.872141 100.411 169.1095
4367.291658 100.413 168.9667
4398.938854 100.408 168.8541
4430.815378 100.397 168.7767
4462.922893 100.379 168.7380
4495.263072 100.354 168.7405
4527.837601 100.325 168.7850
4560.648179 100.290 168.8710
4593.696515 100.251 168.9969
4626.984334 100.209 169.1603
4660.513370 100.163 169.3576
4694.285371 100.116 169.5848
4728.302098 100.068 169.8371
4762.565324 100.020 170.1093
4797.076835 99.975 170.3958
4831.838432 99.932 170.6906
4866.851925 99.894 170.9878
4902.119140 99.861 171.2809
4937.641916 99.835 171.5633
4973.422105 99.816 171.8276
5009.461572 99.805 172.0666
5045.762195 99.803 172.2726
5082.325868 99.808 172.4383
5119.154496 99.821 172.5564
5156.250000 99.840 172.6206
5193.614313 99.864 172.6260
5231.249383 99.891 172.5692
5269.157173 99.918 172.4492
5307.339658 99.944 172.2675
5345.798829 99.966 172.0283
5384.536691 99.982 171.7386
5423.555263 99.989 171.4078
5462.856580 99.987 171.0475
5502.442691 99.973 170.6713
5542.315659 99.948 170.2940
5582.477563 99.911 169.9319
5622.930497 99.864 169.6017
5663.676569 99.806 169.3204
5704.717904 99.741 169.1052
5746.056642 99.671 168.9730
5787.694937 99.598 168.9396
5829.634960 99.527 169.0192
5871.878898 99.463 169.2227
5914.428953 99.409 169.5563
5957.287343 99.370 170.0201
6000.456303 99.352 170.6070
6043.938083 99.356 171.3022
6087.734950 99.387 172.0833
6131.849187 99.445 172.9217
6176.283094 99.529 173.7838
6221.038987 99.639 174.6335
6266.119200 99.772 175.4347
6311.526083 99.924 176.1530
6357.262002 100.092 176.7585
6403.329344 100.270 177.2260
6449.730508 100.456 177.5359
6496.467914 100.646 177.6738
6543.543998 100.837 177.6296
6590.961215 101.026 177.3970
6638.722037 101.210 176.9722
6686.828954 101.389 176.3536
6735.284473 101.560 175.5419
6784.091120 101.721 174.5395
6833.251441 101.870 173.3507
6882.767998 102.006 171.9822
6932.643372 102.127 170.4426
6982.880164 102.230 168.7422
7033.480992 102.314 166.8934
7084.448495 102.376 164.9100
7135.785329 102.415 162.8074
7187.494171 102.430 160.6024
7239.577717 102.417 158.3127
7292.038681 102.376 155.9569
7344.879799 102.306 153.5538
7398.103826 102.206 151.1212
7451.713536 102.076 148.6749
7505.711724 101.917 146.2274
7560.101205 101.729 143.7863
7614.884815 101.515 141.3533
7670.065409 101.275 138.9233
7725.645865 101.012 136.4841
7781.629080 100.726 134.0175
7838.017972 100.418 131.5001
7894.815481 100.087 128.9059
7952.024569 99.731 126.2089
8009.648217 99.349 123.3853
8067.689429 98.937 120.4154
8126.151233 98.492 117.2844
8185.036674 98.010 113.9816
8244.348824 97.489 110.4963
8304.090774 96.930 106.8108
8364.265639 96.338 102.8830
8424.876556 95.722 98.6119
8485.926684 95.100 93.7494
8547.419207 94.497 87.6279
8609.357330 93.950 77.9886
8671.744282 93.505 52.3703
8734.583316 93.206 -36.0676
8797.877707 93.089 -71.1558
8861.630756 93.169 -81.8921
8925.845785 93.432 -87.8240
8990.526143 93.846 -92.0807
9055.675202 94.371 -95.5638
9121.296357 94.967 -98.6415
9187.393031 95.601 -101.5029
9253.968668 96.247 -104.2632
9321.026740 96.890 -107.0020
9388.570742 97.517 -109.7786
9456.604196 98.118 -112.6394
9525.130648 98.688 -115.6217
9594.153671 99.220 -118.7548
9663.676863 99.710 -122.0608
9733.703850 100.152 -125.5543
9804.238280 100.543 -129.2421
9875.283832 100.877 -133.1224
9946.844210 101.150 -137.1838
10018.923143 101.357 -141.4049
10091.524390 101.494 -145.7543
10164.651736 101.559 -150.1903
10238.308993 101.548 -154.6637
10312.500000 101.463 -159.1198
10387.228626 101.304 -163.5018
10462.498767 101.076 -167.7562
10538.314345 100.783 -171.8354
10614.679315 100.432 -175.7014
10691.597657 100.031 -179.3281
10769.073381 99.587 177.2986
10847.110526 99.110 174.1807
10925.713161 98.606 171.3088
11004.885382 98.082 168.6649
11084.631318 97.545 166.2238
11164.955126 96.999 163.9565
11245.860993 96.445 161.8328
11327.353138 95.886 159.8232
11409.435808 95.321 157.9015
11492.113283 94.750 156.0444
11575.389873 94.173 154.2316
11659.269920 93.588 152.4431
11743.757796 92.997 150.6567
11828.857906 92.401 148.8439
11914.574686 91.805 146.9662
12000.912606 91.215 144.9722
12087.876166 90.636 142.7955
12175.469900 90.079 140.3545
12263.698373 89.551 137.5516
12352.566187 89.062 134.2726
12442.077974 88.622 130.3832
12532.238400 88.239 125.7205
12623.052165 87.920 120.0795
12714.524005 87.673 113.1919
12806.658687 87.503 104.7036
12899.461015 87.414 94.1685
12992.935827 87.408 81.1273
13087.087996 87.484 65.3865
13181.922430 87.638 47.5312
13277.444074 87.862 29.1414
13373.657907 88.146 12.0054
13470.568945 88.478 -2.9306
13568.182241 88.843 -15.6570
13666.502883 89.225 -26.5940
13765.535996 89.611 -36.2117
13865.286744 89.985 -44.8947
13965.760328 90.335 -52.9252
14066.961984 90.648 -60.5005
14168.896989 90.914 -67.7543
14271.570658 91.124 -74.7711
14374.988342 91.270 -81.5999
14479.155433 91.347 -88.2613
14584.077362 91.350 -94.7562
14689.759598 91.280 -101.0715
14796.207652 91.135 -107.1865
14903.427072 90.918 -113.0768
15011.423448 90.632 -118.7182
15120.202410 90.282 -124.0886
15229.769630 89.874 -129.1705
15340.130819 89.412 -133.9529
15451.291730 88.905 -138.4314
15563.258160 88.358 -142.6094
15676.035944 87.779 -146.4967
15789.630962 87.175 -150.1089
15904.049137 86.551 -153.4648
16019.296433 85.913 -156.5862
16135.378859 85.266 -159.4962
16252.302465 84.615 -162.2208
16370.073348 83.965 -164.7893
16488.697648 83.322 -167.2351
16608.181548 82.689 -169.5959
16728.531278 82.071 -171.9114
16849.753112 81.472 -174.2207
16971.853368 80.894 -176.5603
17094.838414 80.338 -178.9603
17218.714660 79.807 178.5551
17343.488565 79.301 175.9678
17469.166632 78.825 173.2623
17595.755415 78.383 170.4216
17723.261512 77.983 167.4204
17851.691571 77.635 164.2197
17981.052287 77.349 160.7632
18111.350404 77.133 156.9768
18242.592715 76.988 152.7737
18374.786062 76.910 148.0634
18507.937336 76.886 142.7627
18642.053479 76.895 136.8079
18777.141484 76.919 130.1653
18913.208391 76.939 122.8448
19050.261296 76.939 114.9163
19188.307342 76.911 106.5349
19327.353727 76.855 97.9709
19467.407699 76.774 89.6260
19608.476560 76.680 82.0115
19750.567664 76.588 75.6846
19893.688419 76.515 71.1522
20037.846286 76.474 68.7887
