* Measurement data measured by REW V5.31.3
* Source: EXCL: Headset (USB-C to 3.5mm Headphone Jack Adapter), MICROPHONE (Master Volume), 0, volume: 0.250
* Format: 256k Log Swept Sine, 1 sweep at -12.0 dBFS with no timing reference
* Dated: Feb 9, 2025 6:27:03 PM
* REW Settings:
*  C-weighting compensation: Off
*  Target level: 75.0 dB
* Note: ; 
* Measurement: Satyr 2 (Geekria) R8
* Smoothing: 1/6 octave
* Frequency Step: 96 ppo
* Start Frequency: 20.0 Hz
*
* Freq(Hz) SPL(dB) Phase(degrees)
20.141602 97.326 -47.7116
20.287556 97.339 -47.9478
20.434568 97.353 -48.2631
20.582645 97.368 -48.6477
20.731796 97.379 -49.0908
20.882027 97.385 -49.5819
21.033346 97.383 -50.1116
21.185763 97.373 -50.6714
21.339284 97.355 -51.2546
21.493917 97.327 -51.8559
21.649671 97.293 -52.4712
21.806553 97.251 -53.0978
21.964572 97.205 -53.7336
22.123737 97.157 -54.3775
22.284054 97.107 -55.0285
22.445534 97.057 -55.6859
22.608183 97.009 -56.3487
22.772012 96.965 -57.0159
22.937027 96.925 -57.6863
23.103238 96.891 -58.3582
23.270654 96.864 -59.0300
23.439282 96.844 -59.6998
23.609133 96.833 -60.3659
23.780215 96.831 -61.0266
23.952536 96.839 -61.6811
24.126106 96.858 -62.3286
24.300934 96.888 -62.9693
24.477028 96.930 -63.6039
24.654399 96.982 -64.2337
24.833055 97.045 -64.8603
25.013005 97.115 -65.4858
25.194260 97.193 -66.1120
25.376828 97.276 -66.7405
25.560719 97.363 -67.3724
25.745942 97.450 -68.0082
25.932508 97.536 -68.6474
26.120426 97.619 -69.2887
26.309705 97.699 -69.9299
26.500356 97.773 -70.5685
26.692388 97.840 -71.2015
26.885812 97.902 -71.8263
27.080638 97.957 -72.4405
27.276876 98.006 -73.0430
27.474535 98.052 -73.6337
27.673627 98.094 -74.2142
27.874161 98.136 -74.7874
28.076149 98.179 -75.3573
28.279600 98.227 -75.9289
28.484526 98.281 -76.5076
28.690937 98.345 -77.0980
28.898843 98.420 -77.7040
29.108256 98.509 -78.3279
29.319186 98.612 -78.9702
29.531645 98.728 -79.6295
29.745644 98.858 -80.3029
29.961193 98.999 -80.9862
30.178304 99.150 -81.6749
30.396989 99.306 -82.3642
30.617258 99.463 -83.0502
30.839123 99.618 -83.7301
31.062596 99.767 -84.4022
31.287688 99.904 -85.0660
31.514412 100.025 -85.7218
31.742778 100.128 -86.3707
31.972800 100.207 -87.0138
32.204488 100.262 -87.6518
32.437855 100.290 -88.2854
32.672913 100.291 -88.9144
32.909674 100.264 -89.5387
33.148151 100.212 -90.1577
33.388356 100.135 -90.7708
33.630302 100.036 -91.3775
33.874001 99.920 -91.9774
34.119466 99.789 -92.5705
34.366710 99.647 -93.1566
34.615745 99.499 -93.7363
34.866585 99.350 -94.3101
35.119243 99.203 -94.8794
35.373731 99.064 -95.4462
35.630064 98.934 -96.0129
35.888254 98.819 -96.5829
36.148315 98.722 -97.1594
36.410261 98.643 -97.7458
36.674104 98.586 -98.3448
36.939860 98.552 -98.9581
37.207542 98.540 -99.5866
37.477163 98.550 -100.2294
37.748738 98.583 -100.8849
38.022281 98.637 -101.5507
38.297806 98.711 -102.2234
38.575327 98.806 -102.9000
38.854860 98.918 -103.5769
39.136419 99.049 -104.2512
39.420017 99.196 -104.9201
39.705671 99.359 -105.5813
39.993395 99.538 -106.2332
40.283203 99.731 -106.8750
40.575112 99.937 -107.5061
40.869136 100.156 -108.1269
41.165290 100.386 -108.7375
41.463591 100.624 -109.3379
41.764053 100.870 -109.9277
42.066693 101.119 -110.5060
42.371525 101.370 -111.0717
42.678567 101.621 -111.6241
42.987834 101.868 -112.1637
43.299341 102.110 -112.6924
43.613106 102.344 -113.2143
43.929145 102.568 -113.7348
44.247473 102.780 -114.2604
44.568109 102.977 -114.7970
44.891068 103.158 -115.3494
45.216367 103.323 -115.9202
45.544023 103.469 -116.5100
45.874054 103.598 -117.1174
46.206476 103.708 -117.7395
46.541307 103.801 -118.3729
46.878565 103.877 -119.0134
47.218266 103.936 -119.6571
47.560429 103.980 -120.2999
47.905072 104.009 -120.9384
48.252212 104.024 -121.5692
48.601867 104.026 -122.1901
48.954056 104.016 -122.7997
49.308798 103.996 -123.3977
49.666109 103.968 -123.9851
50.026010 103.934 -124.5633
50.388520 103.895 -125.1343
50.753656 103.853 -125.6997
51.121437 103.810 -126.2609
51.491884 103.768 -126.8184
51.865016 103.728 -127.3724
52.240851 103.691 -127.9225
52.619410 103.659 -128.4682
53.000712 103.630 -129.0093
53.384777 103.605 -129.5457
53.771625 103.583 -130.0779
54.161276 103.564 -130.6068
54.553751 103.547 -131.1332
54.949070 103.530 -131.6582
55.347254 103.513 -132.1822
55.748323 103.495 -132.7055
56.152298 103.475 -133.2281
56.559201 103.453 -133.7496
56.969052 103.429 -134.2701
57.381873 103.401 -134.7894
57.797686 103.370 -135.3077
58.216512 103.336 -135.8250
58.638373 103.299 -136.3412
59.063291 103.259 -136.8559
59.491288 103.217 -137.3685
59.922386 103.172 -137.8785
60.356608 103.126 -138.3852
60.793977 103.078 -138.8885
61.234515 103.029 -139.3884
61.678246 102.979 -139.8852
62.125192 102.930 -140.3793
62.575377 102.880 -140.8710
63.028824 102.831 -141.3604
63.485557 102.783 -141.8477
63.945599 102.736 -142.3329
64.408975 102.691 -142.8161
64.875709 102.649 -143.2976
65.345825 102.610 -143.7777
65.819348 102.573 -144.2569
66.296302 102.540 -144.7354
66.776713 102.509 -145.2129
67.260604 102.482 -145.6892
67.748002 102.456 -146.1636
68.238932 102.434 -146.6354
68.733420 102.413 -147.1037
69.231490 102.394 -147.5678
69.733170 102.377 -148.0269
70.238485 102.362 -148.4806
70.747463 102.348 -148.9283
71.260128 102.336 -149.3698
71.776508 102.325 -149.8049
72.296630 102.315 -150.2338
72.820521 102.306 -150.6565
73.348209 102.298 -151.0730
73.879720 102.291 -151.4836
74.415083 102.285 -151.8883
74.954326 102.280 -152.2873
75.497475 102.274 -152.6811
76.044561 102.269 -153.0700
76.595612 102.264 -153.4545
77.150655 102.258 -153.8350
77.709720 102.251 -154.2121
78.272837 102.242 -154.5861
78.840034 102.231 -154.9574
79.411342 102.218 -155.3262
79.986789 102.202 -155.6931
80.566406 102.183 -156.0581
81.150224 102.161 -156.4215
81.738272 102.136 -156.7834
82.330581 102.109 -157.1440
82.927182 102.081 -157.5032
83.528107 102.052 -157.8610
84.133386 102.026 -158.2175
84.743051 102.003 -158.5724
85.357134 101.987 -158.9259
85.975667 101.981 -159.2776
86.598682 101.987 -159.6277
87.226212 102.011 -159.9761
87.858289 102.054 -160.3231
88.494946 102.119 -160.6691
89.136217 102.209 -161.0145
89.782135 102.323 -161.3598
90.432733 102.460 -161.7055
91.088046 102.618 -162.0518
91.748108 102.794 -162.3988
92.412952 102.983 -162.7464
93.082615 103.179 -163.0945
93.757130 103.377 -163.4426
94.436533 103.572 -163.7905
95.120859 103.758 -164.1379
95.810144 103.933 -164.4846
96.504423 104.092 -164.8305
97.203734 104.233 -165.1756
97.908112 104.357 -165.5197
98.617595 104.464 -165.8630
99.332219 104.553 -166.2055
100.052021 104.628 -166.5473
100.777039 104.690 -166.8885
101.507311 104.741 -167.2291
102.242875 104.783 -167.5690
102.983769 104.819 -167.9079
103.730032 104.849 -168.2452
104.481702 104.874 -168.5806
105.238820 104.894 -168.9134
106.001424 104.908 -169.2433
106.769554 104.916 -169.5702
107.543250 104.914 -169.8942
108.322553 104.903 -170.2154
109.107503 104.879 -170.5342
109.898141 104.842 -170.8510
110.694508 104.792 -171.1661
111.496646 104.728 -171.4795
112.304596 104.650 -171.7910
113.118402 104.560 -172.1006
113.938104 104.460 -172.4078
114.763747 104.350 -172.7125
115.595372 104.235 -173.0144
116.433024 104.116 -173.3132
117.276746 103.995 -173.6090
118.126581 103.875 -173.9016
118.982575 103.756 -174.1907
119.844772 103.640 -174.4760
120.713217 103.527 -174.7571
121.587954 103.418 -175.0339
122.469031 103.310 -175.3061
123.356492 103.204 -175.5736
124.250384 103.098 -175.8365
125.150753 102.990 -176.0950
126.057647 102.880 -176.3494
126.971113 102.765 -176.5999
127.891198 102.645 -176.8472
128.817950 102.519 -177.0916
129.751418 102.387 -177.3341
130.691651 102.250 -177.5754
131.638696 102.107 -177.8164
132.592604 101.961 -178.0578
133.553425 101.813 -178.3004
134.521208 101.667 -178.5449
135.496004 101.526 -178.7917
136.477864 101.392 -179.0414
137.466839 101.269 -179.2941
138.462981 101.161 -179.5501
139.466340 101.068 -179.8091
140.476971 100.994 179.9293
141.494925 100.939 179.6654
142.520256 100.901 179.3999
143.553016 100.878 179.1335
144.593260 100.869 178.8667
145.641043 100.869 178.6003
146.696418 100.874 178.3350
147.759441 100.880 178.0713
148.830166 100.884 177.8098
149.908651 100.884 177.5509
150.994951 100.876 177.2952
152.089123 100.860 177.0430
153.191223 100.837 176.7949
154.301310 100.806 176.5514
155.419441 100.769 176.3130
156.545674 100.727 176.0801
157.680069 100.683 175.8533
158.822683 100.638 175.6331
159.973578 100.594 175.4197
161.132813 100.551 175.2136
162.300447 100.511 175.0150
163.476543 100.474 174.8240
164.661162 100.440 174.6408
165.854364 100.411 174.4656
167.056213 100.386 174.2986
168.266772 100.366 174.1398
169.486102 100.351 173.9888
170.714268 100.341 173.8450
171.951334 100.336 173.7079
173.197364 100.337 173.5762
174.452424 100.344 173.4492
175.716578 100.355 173.3257
176.989893 100.372 173.2049
178.272434 100.392 173.0858
179.564270 100.415 172.9677
180.865467 100.440 172.8494
182.176092 100.465 172.7303
183.496216 100.489 172.6094
184.825905 100.512 172.4857
186.165229 100.533 172.3584
187.514259 100.551 172.2263
188.873065 100.567 172.0888
190.241717 100.581 171.9451
191.620287 100.593 171.7945
193.008847 100.605 171.6370
194.407468 100.615 171.4725
195.816225 100.625 171.3014
197.235190 100.635 171.1243
198.664438 100.644 170.9418
200.104042 100.652 170.7547
201.554078 100.658 170.5638
203.014622 100.662 170.3698
204.485750 100.663 170.1734
205.967538 100.660 169.9750
207.460064 100.653 169.7747
208.963405 100.641 169.5729
210.477640 100.625 169.3693
212.002848 100.606 169.1643
213.539108 100.582 168.9582
215.086500 100.555 168.7513
216.645105 100.526 168.5446
218.215005 100.494 168.3387
219.796281 100.459 168.1344
221.389015 100.422 167.9326
222.993292 100.382 167.7339
224.609193 100.339 167.5391
226.236804 100.291 167.3485
227.876209 100.238 167.1627
229.527494 100.179 166.9819
231.190745 100.115 166.8065
232.866048 100.045 166.6368
234.553491 99.969 166.4728
236.253163 99.889 166.3148
237.965150 99.804 166.1630
239.689544 99.716 166.0173
241.426433 99.625 165.8779
243.175909 99.534 165.7444
244.938062 99.442 165.6166
246.712984 99.351 165.4943
248.500768 99.262 165.3770
250.301507 99.176 165.2644
252.115295 99.094 165.1560
253.942226 99.016 165.0512
255.782396 98.943 164.9496
257.635901 98.876 164.8504
259.502837 98.815 164.7529
261.383301 98.761 164.6566
263.277392 98.714 164.5606
265.185209 98.674 164.4646
267.106850 98.642 164.3680
269.042417 98.615 164.2708
270.992009 98.596 164.1728
272.955729 98.581 164.0739
274.933678 98.572 163.9742
276.925961 98.567 163.8737
278.932681 98.565 163.7723
280.953942 98.566 163.6700
282.989850 98.570 163.5668
285.040511 98.575 163.4626
287.106032 98.584 163.3575
289.186521 98.595 163.2516
291.282086 98.611 163.1454
293.392836 98.631 163.0391
295.518881 98.656 162.9331
297.660333 98.687 162.8280
299.817302 98.723 162.7244
301.989902 98.764 162.6227
304.178245 98.808 162.5234
306.382446 98.854 162.4269
308.602620 98.900 162.3336
310.838882 98.945 162.2436
313.091348 98.986 162.1570
315.360137 99.023 162.0739
317.645367 99.054 161.9937
319.947156 99.078 161.9162
322.265625 99.094 161.8408
324.600895 99.101 161.7667
326.953086 99.098 161.6929
329.322323 99.087 161.6188
331.708729 99.065 161.5435
334.112427 99.032 161.4664
336.533543 98.990 161.3869
338.972204 98.938 161.3044
341.428536 98.876 161.2185
343.902668 98.806 161.1287
346.394729 98.728 161.0347
348.904848 98.644 160.9366
351.433156 98.556 160.8345
353.979786 98.465 160.7287
356.544869 98.374 160.6197
359.128540 98.286 160.5081
361.730934 98.203 160.3946
364.352185 98.127 160.2801
366.992431 98.063 160.1655
369.651810 98.011 160.0516
372.330459 97.974 159.9397
375.028519 97.952 159.8310
377.746130 97.947 159.7269
380.483434 97.958 159.6289
383.240574 97.983 159.5388
386.017693 98.021 159.4583
388.814937 98.070 159.3888
391.632450 98.126 159.3318
394.470380 98.188 159.2886
397.328875 98.254 159.2597
400.208084 98.321 159.2457
403.108157 98.387 159.2466
406.029245 98.452 159.2622
408.971500 98.515 159.2919
411.935076 98.575 159.3349
414.920127 98.634 159.3904
417.926810 98.691 159.4573
420.955280 98.748 159.5347
424.005695 98.806 159.6215
427.078215 98.864 159.7167
430.173000 98.925 159.8192
433.290211 98.988 159.9279
436.430010 99.054 160.0415
439.592562 99.121 160.1588
442.778031 99.190 160.2781
445.986583 99.257 160.3976
449.218386 99.323 160.5152
452.473607 99.386 160.6285
455.752418 99.443 160.7350
459.054987 99.494 160.8320
462.381489 99.537 160.9170
465.732096 99.572 160.9878
469.106983 99.597 161.0421
472.506325 99.614 161.0781
475.930301 99.621 161.0944
479.379088 99.620 161.0898
482.852867 99.612 161.0637
486.351817 99.596 161.0157
489.876123 99.573 160.9463
493.425968 99.544 160.8560
497.001536 99.510 160.7462
500.603014 99.469 160.6184
504.230589 99.423 160.4745
507.884452 99.371 160.3164
511.564792 99.312 160.1466
515.271802 99.246 159.9676
519.005673 99.175 159.7821
522.766602 99.098 159.5929
526.554785 99.016 159.4029
530.370418 98.930 159.2152
534.213700 98.842 159.0327
538.084833 98.755 158.8587
541.984018 98.669 158.6966
545.911457 98.585 158.5506
549.867357 98.505 158.4258
553.851922 98.429 158.3285
557.865362 98.356 158.2659
561.907884 98.286 158.2460
565.979700 98.218 158.2775
570.081022 98.150 158.3694
574.212064 98.083 158.5298
578.373042 98.015 158.7657
582.564171 97.947 159.0821
586.785671 97.879 159.4809
591.037762 97.811 159.9603
595.320665 97.746 160.5140
599.634604 97.685 161.1312
603.979804 97.629 161.7971
608.356491 97.579 162.4931
612.764893 97.537 163.1990
617.205240 97.504 163.8938
621.677763 97.480 164.5580
626.182696 97.466 165.1744
630.720274 97.462 165.7291
635.290733 97.467 166.2122
639.894312 97.482 166.6181
644.531250 97.505 166.9446
649.201789 97.537 167.1931
653.906173 97.576 167.3672
658.644647 97.621 167.4729
663.417457 97.669 167.5172
668.224854 97.721 167.5076
673.067086 97.772 167.4520
677.944408 97.822 167.3584
682.857073 97.868 167.2343
687.805336 97.908 167.0874
692.789457 97.941 166.9250
697.809695 97.966 166.7540
702.866312 97.981 166.5812
707.959571 97.986 166.4130
713.089738 97.982 166.2552
718.257080 97.968 166.1134
723.461867 97.945 165.9926
728.704370 97.913 165.8971
733.984862 97.875 165.8307
739.303619 97.831 165.7963
744.660918 97.783 165.7963
750.057038 97.732 165.8326
755.492260 97.680 165.9063
760.966869 97.627 166.0182
766.481148 97.575 166.1678
772.035387 97.525 166.3537
777.629873 97.476 166.5725
783.264900 97.430 166.8195
788.940760 97.387 167.0878
794.657750 97.346 167.3689
800.416168 97.307 167.6528
806.216313 97.270 167.9283
812.058489 97.234 168.1845
817.943000 97.199 168.4104
823.870152 97.163 168.5966
829.840255 97.126 168.7357
835.853619 97.088 168.8227
841.910559 97.047 168.8555
848.011390 97.003 168.8347
854.156430 96.956 168.7634
860.346000 96.906 168.6462
866.580422 96.852 168.4896
872.860020 96.795 168.3003
879.185124 96.736 168.0860
885.556062 96.674 167.8541
891.973166 96.611 167.6120
898.436771 96.549 167.3665
904.947215 96.488 167.1239
911.504835 96.429 166.8896
918.109975 96.374 166.6684
924.762978 96.325 166.4639
931.464192 96.282 166.2791
938.213966 96.247 166.1154
945.012651 96.219 165.9735
951.860602 96.201 165.8529
958.758176 96.191 165.7521
965.705733 96.191 165.6688
972.703635 96.198 165.6005
979.752246 96.213 165.5446
986.851935 96.236 165.4983
994.003071 96.265 165.4593
1001.206027 96.301 165.4254
1008.461179 96.343 165.3946
1015.768904 96.391 165.3649
1023.129584 96.446 165.3347
1030.543603 96.509 165.3029
1038.011347 96.579 165.2684
1045.533205 96.658 165.2307
1053.109569 96.745 165.1889
1060.740836 96.840 165.1423
1068.427401 96.944 165.0897
1076.169666 97.056 165.0301
1083.968035 97.173 164.9619
1091.822915 97.296 164.8835
1099.734713 97.421 164.7929
1107.703844 97.548 164.6878
1115.730723 97.673 164.5660
1123.815768 97.795 164.4254
1131.959400 97.912 164.2642
1140.162045 98.023 164.0811
1148.424129 98.127 163.8758
1156.746083 98.223 163.6485
1165.128342 98.312 163.4001
1173.571343 98.393 163.1320
1182.075524 98.469 162.8461
1190.641331 98.538 162.5447
1199.269209 98.604 162.2305
1207.959608 98.665 161.9066
1216.712981 98.724 161.5760
1225.529785 98.780 161.2414
1234.410479 98.834 160.9047
1243.355526 98.886 160.5668
1252.365393 98.934 160.2271
1261.440549 98.980 159.8843
1270.581467 99.022 159.5359
1279.788624 99.059 159.1800
1289.062500 99.090 158.8146
1298.403578 99.115 158.4393
1307.812346 99.132 158.0554
1317.289293 99.141 157.6658
1326.834914 99.142 157.2753
1336.449707 99.134 156.8897
1346.134173 99.119 156.5155
1355.888816 99.096 156.1586
1365.714145 99.066 155.8238
1375.610673 99.030 155.5142
1385.578915 98.988 155.2313
1395.619391 98.942 154.9750
1405.732624 98.891 154.7447
1415.919142 98.836 154.5395
1426.179476 98.778 154.3591
1436.514160 98.716 154.2039
1446.923734 98.652 154.0746
1457.408740 98.586 153.9721
1467.969724 98.519 153.8975
1478.607238 98.452 153.8519
1489.321836 98.387 153.8372
1500.114076 98.323 153.8555
1510.984521 98.261 153.9091
1521.933737 98.202 154.0001
1532.962297 98.148 154.1293
1544.070773 98.097 154.2966
1555.259747 98.050 154.5011
1566.529800 98.007 154.7414
1577.881521 97.969 155.0162
1589.315501 97.934 155.3250
1600.832336 97.902 155.6677
1612.432627 97.873 156.0450
1624.116978 97.847 156.4577
1635.886000 97.826 156.9062
1647.740304 97.808 157.3907
1659.680509 97.795 157.9105
1671.707238 97.789 158.4639
1683.821118 97.790 159.0474
1696.022780 97.799 159.6555
1708.312860 97.817 160.2801
1720.692000 97.846 160.9114
1733.160843 97.885 161.5375
1745.720041 97.934 162.1462
1758.370248 97.991 162.7260
1771.112124 98.055 163.2687
1783.946332 98.123 163.7709
1796.873543 98.194 164.2340
1809.894429 98.267 164.6632
1823.009670 98.339 165.0648
1836.219950 98.411 165.4447
1849.525956 98.483 165.8066
1862.928384 98.556 166.1521
1876.427931 98.629 166.4810
1890.025301 98.704 166.7924
1903.721204 98.779 167.0848
1917.516352 98.857 167.3569
1931.411466 98.935 167.6073
1945.407270 99.015 167.8341
1959.504493 99.095 168.0351
1973.703870 99.174 168.2071
1988.006142 99.252 168.3464
2002.412054 99.327 168.4489
2016.922357 99.397 168.5113
2031.537808 99.461 168.5323
2046.259169 99.516 168.5130
2061.087206 99.563 168.4576
2076.022694 99.599 168.3719
2091.066410 99.626 168.2623
2106.219139 99.644 168.1331
2121.481671 99.656 167.9859
2136.854802 99.662 167.8179
2152.339333 99.665 167.6240
2167.936071 99.667 167.3975
2183.645829 99.667 167.1320
2199.469427 99.667 166.8229
2215.407689 99.667 166.4674
2231.461446 99.668 166.0644
2247.631536 99.667 165.6139
2263.918800 99.667 165.1169
2280.324089 99.665 164.5751
2296.848258 99.660 163.9908
2313.492167 99.653 163.3676
2330.256685 99.641 162.7096
2347.142685 99.625 162.0219
2364.151049 99.602 161.3100
2381.282662 99.572 160.5799
2398.538418 99.535 159.8375
2415.919216 99.491 159.0885
2433.425962 99.440 158.3378
2451.059570 99.381 157.5898
2468.820958 99.316 156.8487
2486.711052 99.244 156.1185
2504.730786 99.166 155.4035
2522.881098 99.082 154.7081
2541.162934 98.994 154.0363
2559.577248 98.902 153.3912
2578.125000 98.808 152.7750
2596.807157 98.712 152.1884
2615.624692 98.618 151.6320
2634.578586 98.524 151.1060
2653.669829 98.433 150.6112
2672.899414 98.344 150.1494
2692.268345 98.259 149.7228
2711.777632 98.178 149.3345
2731.428290 98.101 148.9884
2751.221345 98.026 148.6888
2771.157829 97.954 148.4407
2791.238781 97.885 148.2500
2811.465248 97.815 148.1225
2831.838284 97.746 148.0642
2852.358952 97.676 148.0805
2873.028321 97.603 148.1759
2893.847468 97.527 148.3544
2914.817480 97.447 148.6194
2935.939449 97.363 148.9739
2957.214476 97.274 149.4204
2978.643672 97.180 149.9612
3000.228152 97.081 150.5980
3021.969041 96.978 151.3320
3043.867475 96.872 152.1638
3065.924593 96.765 153.0924
3088.141547 96.659 154.1149
3110.519493 96.556 155.2264
3133.059600 96.459 156.4187
3155.763041 96.371 157.6807
3178.631001 96.294 158.9975
3201.664672 96.230 160.3507
3224.865254 96.182 161.7198
3248.233957 96.151 163.0826
3271.771999 96.137 164.4177
3295.480608 96.140 165.7050
3319.361019 96.160 166.9276
3343.414477 96.194 168.0718
3367.642236 96.242 169.1276
3392.045560 96.302 170.0882
3416.625721 96.371 170.9503
3441.383999 96.449 171.7132
3466.321686 96.533 172.3778
3491.440082 96.624 172.9460
3516.740496 96.719 173.4202
3542.224247 96.818 173.8030
3567.892664 96.920 174.0977
3593.747085 97.023 174.3085
3619.788858 97.128 174.4404
3646.019340 97.232 174.4999
3672.439900 97.335 174.4944
3699.051913 97.437 174.4330
3725.856768 97.535 174.3256
3752.855862 97.631 174.1823
3780.050603 97.723 174.0128
3807.442408 97.813 173.8250
3835.032705 97.900 173.6251
3862.822933 97.984 173.4166
3890.814540 98.067 173.2013
3919.008986 98.148 172.9789
3947.407741 98.226 172.7479
3976.012284 98.301 172.5064
4004.824108 98.373 172.2526
4033.844715 98.440 171.9853
4063.075616 98.501 171.7049
4092.518337 98.556 171.4131
4122.174412 98.603 171.1130
4152.045387 98.641 170.8092
4182.132820 98.670 170.5073
4212.438278 98.690 170.2135
4242.963342 98.700 169.9348
4273.709604 98.700 169.6782
4304.678665 98.690 169.4514
4335.872141 98.670 169.2621
4367.291658 98.641 169.1176
4398.938854 98.604 169.0251
4430.815378 98.558 168.9908
4462.922893 98.504 169.0194
4495.263072 98.444 169.1143
4527.837601 98.378 169.2767
4560.648179 98.307 169.5061
4593.696515 98.231 169.8003
4626.984334 98.153 170.1559
4660.513370 98.072 170.5681
4694.285371 97.991 171.0314
4728.302098 97.910 171.5397
4762.565324 97.830 172.0865
4797.076835 97.754 172.6646
4831.838432 97.681 173.2670
4866.851925 97.614 173.8866
4902.119140 97.554 174.5165
4937.641916 97.501 175.1501
4973.422105 97.457 175.7807
5009.461572 97.422 176.4022
5045.762195 97.396 177.0086
5082.325868 97.379 177.5951
5119.154496 97.371 178.1573
5156.250000 97.370 178.6924
5193.614313 97.377 179.1984
5231.249383 97.390 179.6750
5269.157173 97.407 -179.8769
5307.339658 97.428 -179.4553
5345.798829 97.451 -179.0566
5384.536691 97.476 -178.6766
5423.555263 97.501 -178.3101
5462.856580 97.527 -177.9519
5502.442691 97.554 -177.5968
5542.315659 97.581 -177.2400
5582.477563 97.610 -176.8775
5622.930497 97.642 -176.5059
5663.676569 97.678 -176.1222
5704.717904 97.719 -175.7241
5746.056642 97.768 -175.3094
5787.694937 97.825 -174.8760
5829.634960 97.893 -174.4222
5871.878898 97.972 -173.9460
5914.428953 98.066 -173.4466
5957.287343 98.174 -172.9239
6000.456303 98.298 -172.3799
6043.938083 98.439 -171.8191
6087.734950 98.597 -171.2491
6131.849187 98.773 -170.6814
6176.283094 98.964 -170.1309
6221.038987 99.171 -169.6162
6266.119200 99.393 -169.1587
6311.526083 99.626 -168.7810
6357.262002 99.870 -168.5063
6403.329344 100.122 -168.3570
6449.730508 100.380 -168.3538
6496.467914 100.642 -168.5150
6543.543998 100.905 -168.8565
6590.961215 101.168 -169.3918
6638.722037 101.429 -170.1317
6686.828954 101.685 -171.0851
6735.284473 101.935 -172.2586
6784.091120 102.177 -173.6565
6833.251441 102.406 -175.2803
6882.767998 102.621 -177.1281
6932.643372 102.816 -179.1945
6982.880164 102.989 178.5304
7033.480992 103.135 176.0609
7084.448495 103.251 173.4158
7135.785329 103.332 170.6181
7187.494171 103.375 167.6947
7239.577717 103.376 164.6756
7292.038681 103.334 161.5936
7344.879799 103.247 158.4833
7398.103826 103.112 155.3806
7451.713536 102.929 152.3217
7505.711724 102.699 149.3420
7560.101205 102.422 146.4758
7614.884815 102.098 143.7539
7670.065409 101.731 141.2031
7725.645865 101.324 138.8447
7781.629080 100.878 136.6939
7838.017972 100.397 134.7600
7894.815481 99.885 133.0482
7952.024569 99.342 131.5617
8009.648217 98.771 130.3060
8067.689429 98.172 129.2922
8126.151233 97.546 128.5409
8185.036674 96.893 128.0839
8244.348824 96.212 127.9648
8304.090774 95.505 128.2371
8364.265639 94.776 128.9607
8424.876556 94.030 130.1986
8485.926684 93.273 132.0153
8547.419207 92.516 134.4778
8609.357330 91.773 137.6629
8671.744282 91.062 141.6663
8734.583316 90.406 146.6100
8797.877707 89.836 152.6355
8861.630756 89.388 159.8618
8925.845785 89.098 168.2892
8990.526143 88.996 177.6593
9055.675202 89.096 -172.6285
9121.296357 89.389 -163.3962
9187.393031 89.846 -155.3824
9253.968668 90.424 -149.0015
9321.026740 91.081 -144.3313
9388.570742 91.776 -141.2425
9456.604196 92.479 -139.5270
9525.130648 93.166 -138.9731
9594.153671 93.819 -139.3950
9663.676863 94.424 -140.6393
9733.703850 94.973 -142.5808
9804.238280 95.455 -145.1162
9875.283832 95.867 -148.1568
9946.844210 96.200 -151.6230
10018.923143 96.452 -155.4392
10091.524390 96.618 -159.5309
10164.651736 96.696 -163.8230
10238.308993 96.685 -168.2400
10312.500000 96.586 -172.7072
10387.228626 96.400 -177.1530
10462.498767 96.132 178.4891
10538.314345 95.786 174.2790
10614.679315 95.367 170.2694
10691.597657 94.881 166.5073
10769.073381 94.332 163.0344
10847.110526 93.727 159.8895
10925.713161 93.069 157.1097
11004.885382 92.364 154.7314
11084.631318 91.618 152.7903
11164.955126 90.834 151.3213
11245.860993 90.018 150.3557
11327.353138 89.177 149.9186
11409.435808 88.317 150.0234
11492.113283 87.448 150.6650
11575.389873 86.579 151.8107
11659.269920 85.725 153.3921
11743.757796 84.900 155.2986
11828.857906 84.123 157.3781
11914.574686 83.416 159.4456
12000.912606 82.801 161.3008
12087.876166 82.300 162.7494
12175.469900 81.928 163.6227
12263.698373 81.696 163.7890
12352.566187 81.603 163.1565
12442.077974 81.640 161.6692
12532.238400 81.795 159.2990
12623.052165 82.053 156.0366
12714.524005 82.398 151.8854
12806.658687 82.819 146.8580
12899.461015 83.302 140.9782
12992.935827 83.837 134.2880
13087.087996 84.411 126.8546
13181.922430 85.012 118.7773
13277.444074 85.626 110.1866
13373.657907 86.240 101.2335
13470.568945 86.842 92.0721
13568.182241 87.423 82.8420
13666.502883 87.972 73.6552
13765.535996 88.481 64.5918
13865.286744 88.945 55.7039
13965.760328 89.359 47.0224
14066.961984 89.719 38.5648
14168.896989 90.026 30.3408
14271.570658 90.280 22.3552
14374.988342 90.484 14.6084
14479.155433 90.641 7.0950
14584.077362 90.757 -0.1959
14689.759598 90.834 -7.2803
14796.207652 90.874 -14.1754
14903.427072 90.877 -20.8970
15011.423448 90.843 -27.4569
15120.202410 90.772 -33.8616
15229.769630 90.662 -40.1137
15340.130819 90.513 -46.2136
15451.291730 90.328 -52.1617
15563.258160 90.108 -57.9604
15676.035944 89.857 -63.6161
15789.630962 89.577 -69.1391
15904.049137 89.272 -74.5443
16019.296433 88.945 -79.8490
16135.378859 88.596 -85.0710
16252.302465 88.227 -90.2263
16370.073348 87.837 -95.3259
16488.697648 87.423 -100.3745
16608.181548 86.982 -105.3693
16728.531278 86.511 -110.2999
16849.753112 86.009 -115.1514
16971.853368 85.475 -119.9056
17094.838414 84.909 -124.5455
17218.714660 84.312 -129.0581
17343.488565 83.691 -133.4367
17469.166632 83.051 -137.6837
17595.755415 82.400 -141.8116
17723.261512 81.751 -145.8454
17851.691571 81.118 -149.8252
17981.052287 80.519 -153.8102
18111.350404 79.972 -157.8816
18242.592715 79.496 -162.1415
18374.786062 79.103 -166.7072
18507.937336 78.798 -171.6965
18642.053479 78.572 -177.2104
18777.141484 78.408 176.6849
18913.208391 78.283 169.9754
19050.261296 78.174 162.7168
19188.307342 78.060 155.0546
19327.353727 77.930 147.2432
19467.407699 77.784 139.6521
19608.476560 77.631 132.7419
19750.567664 77.487 127.0077
19893.688419 77.375 122.9010
20037.846286 77.313 120.7588
