* Measurement data measured by REW V5.31.3
* Source: EXCL: Headset (USB-C to 3.5mm Headphone Jack Adapter), MICROPHONE (Master Volume), 0, volume: 0.250
* Format: 256k Log Swept Sine, 1 sweep at -12.0 dBFS with no timing reference
* Dated: Feb 9, 2025 6:23:19 PM
* REW Settings:
*  C-weighting compensation: Off
*  Target level: 75.0 dB
* Note: ; 
* Measurement: Satyr 2 (Geekria) R1
* Smoothing: 1/6 octave
* Frequency Step: 96 ppo
* Start Frequency: 20.0 Hz
*
* Freq(Hz) SPL(dB) Phase(degrees)
20.141602 97.360 -46.5977
20.287556 97.376 -46.8047
20.434568 97.395 -47.0845
20.582645 97.414 -47.4325
20.731796 97.431 -47.8432
20.882027 97.441 -48.3109
21.033346 97.443 -48.8293
21.185763 97.435 -49.3917
21.339284 97.416 -49.9913
21.493917 97.387 -50.6211
21.649671 97.348 -51.2740
21.806553 97.301 -51.9433
21.964572 97.246 -52.6226
22.123737 97.188 -53.3063
22.284054 97.127 -53.9898
22.445534 97.068 -54.6696
22.608183 97.011 -55.3435
22.772012 96.959 -56.0105
22.937027 96.914 -56.6706
23.103238 96.878 -57.3247
23.270654 96.851 -57.9739
23.439282 96.834 -58.6198
23.609133 96.828 -59.2636
23.780215 96.833 -59.9061
23.952536 96.849 -60.5479
24.126106 96.875 -61.1886
24.300934 96.911 -61.8278
24.477028 96.956 -62.4647
24.654399 97.010 -63.0985
24.833055 97.071 -63.7289
25.013005 97.139 -64.3560
25.194260 97.212 -64.9805
25.376828 97.289 -65.6038
25.560719 97.368 -66.2277
25.745942 97.449 -66.8540
25.932508 97.528 -67.4847
26.120426 97.606 -68.1211
26.309705 97.680 -68.7637
26.500356 97.750 -69.4124
26.692388 97.814 -70.0659
26.885812 97.873 -70.7224
27.080638 97.927 -71.3796
27.276876 97.976 -72.0352
27.474535 98.020 -72.6873
27.673627 98.063 -73.3344
27.874161 98.106 -73.9761
28.076149 98.151 -74.6126
28.279600 98.202 -75.2447
28.484526 98.262 -75.8738
28.690937 98.332 -76.5011
28.898843 98.416 -77.1275
29.108256 98.515 -77.7537
29.319186 98.630 -78.3796
29.531645 98.761 -79.0047
29.745644 98.906 -79.6283
29.961193 99.063 -80.2499
30.178304 99.229 -80.8691
30.396989 99.400 -81.4859
30.617258 99.571 -82.1009
30.839123 99.738 -82.7150
31.062596 99.894 -83.3291
31.287688 100.036 -83.9442
31.514412 100.160 -84.5609
31.742778 100.262 -85.1791
31.972800 100.339 -85.7987
32.204488 100.390 -86.4188
32.437855 100.412 -87.0385
32.672913 100.407 -87.6566
32.909674 100.375 -88.2725
33.148151 100.318 -88.8852
33.388356 100.237 -89.4942
33.630302 100.136 -90.0995
33.874001 100.017 -90.7008
34.119466 99.885 -91.2985
34.366710 99.743 -91.8930
34.615745 99.595 -92.4852
34.866585 99.445 -93.0762
35.119243 99.298 -93.6675
35.373731 99.158 -94.2610
35.630064 99.027 -94.8582
35.888254 98.911 -95.4605
36.148315 98.811 -96.0690
36.410261 98.730 -96.6840
36.674104 98.671 -97.3052
36.939860 98.633 -97.9320
37.207542 98.619 -98.5630
37.477163 98.627 -99.1966
37.748738 98.659 -99.8315
38.022281 98.712 -100.4658
38.297806 98.787 -101.0983
38.575327 98.881 -101.7278
38.854860 98.995 -102.3535
39.136419 99.126 -102.9748
39.420017 99.274 -103.5918
39.705671 99.438 -104.2045
39.993395 99.616 -104.8133
40.283203 99.808 -105.4187
40.575112 100.012 -106.0209
40.869136 100.227 -106.6200
41.165290 100.451 -107.2160
41.463591 100.683 -107.8088
41.764053 100.920 -108.3988
42.066693 101.163 -108.9868
42.371525 101.407 -109.5742
42.678567 101.651 -110.1628
42.987834 101.893 -110.7546
43.299341 102.131 -111.3513
43.613106 102.362 -111.9539
43.929145 102.584 -112.5626
44.247473 102.795 -113.1767
44.568109 102.994 -113.7948
44.891068 103.179 -114.4153
45.216367 103.349 -115.0362
45.544023 103.503 -115.6560
45.874054 103.640 -116.2731
46.206476 103.761 -116.8863
46.541307 103.864 -117.4946
46.878565 103.951 -118.0970
47.218266 104.020 -118.6927
47.560429 104.073 -119.2812
47.905072 104.110 -119.8624
48.252212 104.132 -120.4368
48.601867 104.141 -121.0050
48.954056 104.137 -121.5683
49.308798 104.122 -122.1281
49.666109 104.097 -122.6855
50.026010 104.064 -123.2415
50.388520 104.025 -123.7966
50.753656 103.982 -124.3509
51.121437 103.937 -124.9042
51.491884 103.892 -125.4559
51.865016 103.848 -126.0054
52.240851 103.807 -126.5520
52.619410 103.771 -127.0951
53.000712 103.738 -127.6340
53.384777 103.710 -128.1683
53.771625 103.686 -128.6977
54.161276 103.664 -129.2224
54.553751 103.645 -129.7427
54.949070 103.627 -130.2592
55.347254 103.609 -130.7723
55.748323 103.591 -131.2825
56.152298 103.571 -131.7898
56.559201 103.548 -132.2941
56.969052 103.523 -132.7955
57.381873 103.495 -133.2940
57.797686 103.465 -133.7897
58.216512 103.431 -134.2829
58.638373 103.394 -134.7741
59.063291 103.354 -135.2639
59.491288 103.311 -135.7531
59.922386 103.267 -136.2426
60.356608 103.221 -136.7331
60.793977 103.174 -137.2249
61.234515 103.126 -137.7184
61.678246 103.079 -138.2134
62.125192 103.031 -138.7098
62.575377 102.984 -139.2070
63.028824 102.938 -139.7046
63.485557 102.894 -140.2017
63.945599 102.851 -140.6976
64.408975 102.811 -141.1915
64.875709 102.772 -141.6825
65.345825 102.737 -142.1702
65.819348 102.704 -142.6540
66.296302 102.674 -143.1337
66.776713 102.647 -143.6089
67.260604 102.623 -144.0797
67.748002 102.601 -144.5461
68.238932 102.582 -145.0080
68.733420 102.564 -145.4657
69.231490 102.549 -145.9190
69.733170 102.535 -146.3676
70.238485 102.522 -146.8111
70.747463 102.510 -147.2490
71.260128 102.499 -147.6810
71.776508 102.490 -148.1067
72.296630 102.481 -148.5261
72.820521 102.474 -148.9392
73.348209 102.468 -149.3462
73.879720 102.463 -149.7471
74.415083 102.459 -150.1422
74.954326 102.456 -150.5316
75.497475 102.454 -150.9155
76.044561 102.453 -151.2940
76.595612 102.451 -151.6672
77.150655 102.449 -152.0351
77.709720 102.446 -152.3982
78.272837 102.441 -152.7569
78.840034 102.435 -153.1118
79.411342 102.426 -153.4639
79.986789 102.414 -153.8141
80.566406 102.399 -154.1634
81.150224 102.382 -154.5128
81.738272 102.362 -154.8630
82.330581 102.340 -155.2148
82.927182 102.318 -155.5684
83.528107 102.296 -155.9241
84.133386 102.275 -156.2818
84.743051 102.259 -156.6416
85.357134 102.250 -157.0035
85.975667 102.251 -157.3674
86.598682 102.265 -157.7336
87.226212 102.295 -158.1021
87.858289 102.344 -158.4729
88.494946 102.415 -158.8460
89.136217 102.510 -159.2210
89.782135 102.629 -159.5976
90.432733 102.770 -159.9754
91.088046 102.932 -160.3542
91.748108 103.112 -160.7337
92.412952 103.303 -161.1135
93.082615 103.502 -161.4934
93.757130 103.702 -161.8732
94.436533 103.898 -162.2525
95.120859 104.086 -162.6312
95.810144 104.261 -163.0090
96.504423 104.420 -163.3858
97.203734 104.563 -163.7613
97.908112 104.687 -164.1352
98.617595 104.794 -164.5074
99.332219 104.883 -164.8778
100.052021 104.958 -165.2460
100.777039 105.019 -165.6120
101.507311 105.070 -165.9756
102.242875 105.112 -166.3365
102.983769 105.147 -166.6948
103.730032 105.176 -167.0504
104.481702 105.200 -167.4034
105.238820 105.219 -167.7537
106.001424 105.232 -168.1016
106.769554 105.238 -168.4468
107.543250 105.235 -168.7893
108.322553 105.222 -169.1290
109.107503 105.198 -169.4656
109.898141 105.160 -169.7991
110.694508 105.110 -170.1294
111.496646 105.045 -170.4562
112.304596 104.967 -170.7793
113.118402 104.877 -171.0987
113.938104 104.776 -171.4141
114.763747 104.666 -171.7255
115.595372 104.551 -172.0328
116.433024 104.432 -172.3359
117.276746 104.311 -172.6349
118.126581 104.190 -172.9297
118.982575 104.071 -173.2205
119.844772 103.954 -173.5075
120.713217 103.841 -173.7907
121.587954 103.731 -174.0703
122.469031 103.623 -174.3462
123.356492 103.516 -174.6184
124.250384 103.409 -174.8868
125.150753 103.301 -175.1515
126.057647 103.191 -175.4127
126.971113 103.076 -175.6708
127.891198 102.956 -175.9265
128.817950 102.830 -176.1805
129.751418 102.699 -176.4337
130.691651 102.562 -176.6871
131.638696 102.420 -176.9414
132.592604 102.275 -177.1973
133.553425 102.129 -177.4554
134.521208 101.984 -177.7159
135.496004 101.844 -177.9792
136.477864 101.712 -178.2454
137.466839 101.590 -178.5144
138.462981 101.482 -178.7862
139.466340 101.391 -179.0605
140.476971 101.317 -179.3367
141.494925 101.262 -179.6145
142.520256 101.225 -179.8930
143.553016 101.203 179.8283
144.593260 101.193 179.5501
145.641043 101.193 179.2730
146.696418 101.198 178.9973
147.759441 101.204 178.7233
148.830166 101.208 178.4516
149.908651 101.207 178.1825
150.994951 101.198 177.9166
152.089123 101.182 177.6541
153.191223 101.157 177.3957
154.301310 101.124 177.1417
155.419441 101.086 176.8924
156.545674 101.043 176.6483
157.680069 100.997 176.4099
158.822683 100.950 176.1778
159.973578 100.903 175.9525
161.132813 100.858 175.7348
162.300447 100.816 175.5250
163.476543 100.777 175.3237
164.661162 100.742 175.1312
165.854364 100.710 174.9477
167.056213 100.683 174.7734
168.266772 100.661 174.6084
169.486102 100.643 174.4523
170.714268 100.630 174.3048
171.951334 100.623 174.1652
173.197364 100.621 174.0328
174.452424 100.625 173.9065
175.716578 100.634 173.7852
176.989893 100.649 173.6677
178.272434 100.667 173.5527
179.564270 100.688 173.4389
180.865467 100.711 173.3252
182.176092 100.735 173.2103
183.496216 100.759 173.0932
184.825905 100.781 172.9729
186.165229 100.801 172.8485
187.514259 100.819 172.7191
188.873065 100.834 172.5839
190.241717 100.848 172.4423
191.620287 100.860 172.2939
193.008847 100.871 172.1386
194.407468 100.881 171.9765
195.816225 100.892 171.8078
197.235190 100.901 171.6329
198.664438 100.910 171.4524
200.104042 100.918 171.2670
201.554078 100.925 171.0775
203.014622 100.929 170.8843
204.485750 100.930 170.6882
205.967538 100.927 170.4896
207.460064 100.920 170.2892
208.963405 100.910 170.0871
210.477640 100.895 169.8837
212.002848 100.876 169.6792
213.539108 100.853 169.4738
215.086500 100.826 169.2678
216.645105 100.797 169.0618
218.215005 100.765 168.8564
219.796281 100.730 168.6520
221.389015 100.692 168.4495
222.993292 100.651 168.2494
224.609193 100.606 168.0524
226.236804 100.557 167.8594
227.876209 100.502 167.6710
229.527494 100.442 167.4877
231.190745 100.376 167.3102
232.866048 100.304 167.1386
234.553491 100.227 166.9732
236.253163 100.144 166.8141
237.965150 100.057 166.6613
239.689544 99.967 166.5149
241.426433 99.874 166.3752
243.175909 99.780 166.2424
244.938062 99.686 166.1165
246.712984 99.592 165.9976
248.500768 99.501 165.8854
250.301507 99.412 165.7798
252.115295 99.326 165.6802
253.942226 99.245 165.5862
255.782396 99.170 165.4971
257.635901 99.100 165.4123
259.502837 99.036 165.3312
261.383301 98.979 165.2532
263.277392 98.930 165.1779
265.185209 98.888 165.1048
267.106850 98.853 165.0337
269.042417 98.825 164.9643
270.992009 98.804 164.8964
272.955729 98.789 164.8295
274.933678 98.780 164.7635
276.925961 98.774 164.6980
278.932681 98.773 164.6324
280.953942 98.774 164.5663
282.989850 98.779 164.4992
285.040511 98.786 164.4308
287.106032 98.796 164.3610
289.186521 98.809 164.2897
291.282086 98.827 164.2170
293.392836 98.850 164.1433
295.518881 98.879 164.0691
297.660333 98.913 163.9945
299.817302 98.953 163.9200
301.989902 98.998 163.8457
304.178245 99.046 163.7716
306.382446 99.097 163.6978
308.602620 99.148 163.6240
310.838882 99.197 163.5501
313.091348 99.244 163.4759
315.360137 99.285 163.4011
317.645367 99.321 163.3253
319.947156 99.350 163.2483
322.265625 99.371 163.1695
324.600895 99.383 163.0886
326.953086 99.386 163.0050
329.322323 99.379 162.9183
331.708729 99.362 162.8282
334.112427 99.334 162.7346
336.533543 99.297 162.6370
338.972204 99.249 162.5352
341.428536 99.192 162.4292
343.902668 99.126 162.3185
346.394729 99.052 162.2031
348.904848 98.973 162.0826
351.433156 98.888 161.9572
353.979786 98.802 161.8271
356.544869 98.714 161.6929
359.128540 98.629 161.5550
361.730934 98.549 161.4143
364.352185 98.477 161.2717
366.992431 98.414 161.1280
369.651810 98.365 160.9844
372.330459 98.329 160.8419
375.028519 98.309 160.7018
377.746130 98.305 160.5656
380.483434 98.316 160.4349
383.240574 98.340 160.3114
386.017693 98.377 160.1970
388.814937 98.424 160.0930
391.632450 98.478 160.0012
394.470380 98.537 159.9227
397.328875 98.598 159.8586
400.208084 98.660 159.8101
403.108157 98.720 159.7779
406.029245 98.778 159.7627
408.971500 98.834 159.7649
411.935076 98.886 159.7847
414.920127 98.937 159.8223
417.926810 98.985 159.8774
420.955280 99.033 159.9497
424.005695 99.081 160.0387
427.078215 99.131 160.1434
430.173000 99.182 160.2628
433.290211 99.236 160.3958
436.430010 99.293 160.5405
439.592562 99.352 160.6952
442.778031 99.413 160.8578
445.986583 99.475 161.0258
449.218386 99.535 161.1967
452.473607 99.593 161.3675
455.752418 99.647 161.5351
459.054987 99.695 161.6963
462.381489 99.736 161.8477
465.732096 99.769 161.9859
469.106983 99.795 162.1078
472.506325 99.812 162.2103
475.930301 99.821 162.2908
479.379088 99.823 162.3475
482.852867 99.817 162.3790
486.351817 99.805 162.3844
489.876123 99.787 162.3638
493.425968 99.764 162.3177
497.001536 99.735 162.2473
500.603014 99.702 162.1543
504.230589 99.663 162.0407
507.884452 99.618 161.9090
511.564792 99.568 161.7616
515.271802 99.511 161.6010
519.005673 99.449 161.4299
522.766602 99.381 161.2508
526.554785 99.309 161.0663
530.370418 99.234 160.8788
534.213700 99.157 160.6907
538.084833 99.080 160.5044
541.984018 99.006 160.3226
545.911457 98.934 160.1484
549.867357 98.865 159.9853
553.851922 98.801 159.8379
557.865362 98.739 159.7119
561.907884 98.679 159.6138
565.979700 98.621 159.5516
570.081022 98.561 159.5336
574.212064 98.499 159.5689
578.373042 98.435 159.6664
582.564171 98.366 159.8340
586.785671 98.293 160.0785
591.037762 98.217 160.4039
595.320665 98.139 160.8115
599.634604 98.060 161.2983
603.979804 97.982 161.8573
608.356491 97.907 162.4771
612.764893 97.838 163.1428
617.205240 97.776 163.8364
621.677763 97.724 164.5384
626.182696 97.682 165.2290
630.720274 97.653 165.8895
635.290733 97.637 166.5034
639.894312 97.634 167.0572
644.531250 97.644 167.5413
649.201789 97.666 167.9499
653.906173 97.700 168.2809
658.644647 97.742 168.5356
663.417457 97.792 168.7177
668.224854 97.847 168.8331
673.067086 97.904 168.8889
677.944408 97.961 168.8931
682.857073 98.015 168.8542
687.805336 98.064 168.7812
692.789457 98.106 168.6827
697.809695 98.140 168.5674
702.866312 98.164 168.4437
707.959571 98.179 168.3190
713.089738 98.183 168.2004
718.257080 98.178 168.0938
723.461867 98.164 168.0044
728.704370 98.142 167.9360
733.984862 98.113 167.8915
739.303619 98.079 167.8724
744.660918 98.041 167.8796
750.057038 98.001 167.9132
755.492260 97.959 167.9727
760.966869 97.917 168.0573
766.481148 97.875 168.1661
772.035387 97.833 168.2976
777.629873 97.792 168.4502
783.264900 97.751 168.6217
788.940760 97.710 168.8092
794.657750 97.669 169.0093
800.416168 97.627 169.2176
806.216313 97.583 169.4288
812.058489 97.538 169.6372
817.943000 97.492 169.8364
823.870152 97.445 170.0194
829.840255 97.396 170.1793
835.853619 97.347 170.3093
841.910559 97.297 170.4035
848.011390 97.246 170.4573
854.156430 97.195 170.4679
860.346000 97.144 170.4340
866.580422 97.093 170.3562
872.860020 97.041 170.2368
879.185124 96.989 170.0793
885.556062 96.937 169.8884
891.973166 96.886 169.6698
898.436771 96.834 169.4299
904.947215 96.784 169.1757
911.504835 96.735 168.9142
918.109975 96.689 168.6528
924.762978 96.647 168.3981
931.464192 96.608 168.1564
938.213966 96.575 167.9330
945.012651 96.548 167.7325
951.860602 96.527 167.5575
958.758176 96.513 167.4092
965.705733 96.507 167.2875
972.703635 96.508 167.1905
979.752246 96.515 167.1160
986.851935 96.530 167.0613
994.003071 96.552 167.0233
1001.206027 96.581 166.9990
1008.461179 96.616 166.9856
1015.768904 96.658 166.9802
1023.129584 96.708 166.9801
1030.543603 96.766 166.9826
1038.011347 96.833 166.9852
1045.533205 96.909 166.9853
1053.109569 96.995 166.9801
1060.740836 97.090 166.9673
1068.427401 97.193 166.9445
1076.169666 97.304 166.9097
1083.968035 97.421 166.8615
1091.822915 97.542 166.7988
1099.734713 97.666 166.7209
1107.703844 97.789 166.6277
1115.730723 97.911 166.5192
1123.815768 98.028 166.3956
1131.959400 98.139 166.2573
1140.162045 98.244 166.1049
1148.424129 98.342 165.9391
1156.746083 98.432 165.7607
1165.128342 98.516 165.5701
1173.571343 98.593 165.3684
1182.075524 98.665 165.1563
1190.641331 98.733 164.9345
1199.269209 98.799 164.7039
1207.959608 98.862 164.4651
1216.712981 98.924 164.2192
1225.529785 98.985 163.9663
1234.410479 99.045 163.7065
1243.355526 99.104 163.4393
1252.365393 99.161 163.1635
1261.440549 99.216 162.8776
1270.581467 99.267 162.5797
1279.788624 99.313 162.2682
1289.062500 99.354 161.9422
1298.403578 99.388 161.6014
1307.812346 99.415 161.2469
1317.289293 99.434 160.8810
1326.834914 99.445 160.5074
1336.449707 99.448 160.1314
1346.134173 99.442 159.7589
1355.888816 99.428 159.3965
1365.714145 99.406 159.0497
1375.610673 99.378 158.7234
1385.578915 99.342 158.4208
1395.619391 99.301 158.1441
1405.732624 99.255 157.8940
1415.919142 99.204 157.6711
1426.179476 99.148 157.4750
1436.514160 99.090 157.3057
1446.923734 99.029 157.1627
1457.408740 98.966 157.0458
1467.969724 98.902 156.9551
1478.607238 98.838 156.8917
1489.321836 98.774 156.8575
1500.114076 98.711 156.8559
1510.984521 98.650 156.8905
1521.933737 98.591 156.9651
1532.962297 98.535 157.0829
1544.070773 98.482 157.2454
1555.259747 98.434 157.4529
1566.529800 98.390 157.7036
1577.881521 98.350 157.9946
1589.315501 98.316 158.3217
1600.832336 98.285 158.6804
1612.432627 98.259 159.0675
1624.116978 98.237 159.4807
1635.886000 98.218 159.9185
1647.740304 98.202 160.3806
1659.680509 98.190 160.8672
1671.707238 98.182 161.3790
1683.821118 98.179 161.9170
1696.022780 98.181 162.4821
1708.312860 98.190 163.0740
1720.692000 98.206 163.6907
1733.160843 98.231 164.3276
1745.720041 98.265 164.9774
1758.370248 98.308 165.6308
1771.112124 98.360 166.2776
1783.946332 98.421 166.9086
1796.873543 98.488 167.5166
1809.894429 98.562 168.0970
1823.009670 98.639 168.6470
1836.219950 98.721 169.1641
1849.525956 98.806 169.6450
1862.928384 98.894 170.0855
1876.427931 98.984 170.4815
1890.025301 99.075 170.8306
1903.721204 99.166 171.1330
1917.516352 99.257 171.3912
1931.411466 99.346 171.6102
1945.407270 99.432 171.7957
1959.504493 99.515 171.9543
1973.703870 99.595 172.0917
1988.006142 99.671 172.2114
2002.412054 99.742 172.3145
2016.922357 99.810 172.3986
2031.537808 99.872 172.4590
2046.259169 99.928 172.4903
2061.087206 99.978 172.4876
2076.022694 100.020 172.4484
2091.066410 100.054 172.3727
2106.219139 100.080 172.2631
2121.481671 100.098 172.1223
2136.854802 100.109 171.9529
2152.339333 100.115 171.7556
2167.936071 100.118 171.5295
2183.645829 100.118 171.2726
2199.469427 100.118 170.9822
2215.407689 100.117 170.6557
2231.461446 100.117 170.2912
2247.631536 100.117 169.8875
2263.918800 100.117 169.4438
2280.324089 100.118 168.9599
2296.848258 100.117 168.4357
2313.492167 100.116 167.8713
2330.256685 100.111 167.2676
2347.142685 100.103 166.6270
2364.151049 100.090 165.9533
2381.282662 100.070 165.2527
2398.538418 100.042 164.5322
2415.919216 100.007 163.7991
2433.425962 99.965 163.0601
2451.059570 99.914 162.3203
2468.820958 99.857 161.5843
2486.711052 99.792 160.8562
2504.730786 99.722 160.1403
2522.881098 99.645 159.4405
2541.162934 99.564 158.7609
2559.577248 99.479 158.1046
2578.125000 99.391 157.4737
2596.807157 99.302 156.8698
2615.624692 99.212 156.2935
2634.578586 99.123 155.7455
2653.669829 99.036 155.2266
2672.899414 98.951 154.7380
2692.268345 98.868 154.2822
2711.777632 98.788 153.8624
2731.428290 98.711 153.4832
2751.221345 98.635 153.1502
2771.157829 98.561 152.8702
2791.238781 98.487 152.6508
2811.465248 98.412 152.5001
2831.838284 98.335 152.4265
2852.358952 98.256 152.4380
2873.028321 98.174 152.5415
2893.847468 98.088 152.7428
2914.817480 97.998 153.0464
2935.939449 97.904 153.4553
2957.214476 97.805 153.9718
2978.643672 97.702 154.5972
3000.228152 97.596 155.3322
3021.969041 97.487 156.1771
3043.867475 97.377 157.1309
3065.924593 97.267 158.1911
3088.141547 97.161 159.3529
3110.519493 97.060 160.6086
3133.059600 96.967 161.9474
3155.763041 96.884 163.3545
3178.631001 96.815 164.8120
3201.664672 96.762 166.2990
3224.865254 96.726 167.7924
3248.233957 96.709 169.2682
3271.771999 96.710 170.7032
3295.480608 96.728 172.0761
3319.361019 96.764 173.3692
3343.414477 96.814 174.5687
3367.642236 96.878 175.6655
3392.045560 96.952 176.6545
3416.625721 97.035 177.5346
3441.383999 97.124 178.3081
3466.321686 97.219 178.9793
3491.440082 97.318 179.5541
3516.740496 97.419 -179.9618
3542.224247 97.523 -179.5624
3567.892664 97.629 -179.2423
3593.747085 97.735 -178.9957
3619.788858 97.842 -178.8161
3646.019340 97.948 -178.6967
3672.439900 98.053 -178.6298
3699.051913 98.157 -178.6068
3725.856768 98.259 -178.6185
3752.855862 98.360 -178.6560
3780.050603 98.458 -178.7104
3807.442408 98.554 -178.7743
3835.032705 98.649 -178.8418
3862.822933 98.743 -178.9091
3890.814540 98.837 -178.9741
3919.008986 98.930 -179.0366
3947.407741 99.022 -179.0977
3976.012284 99.114 -179.1592
4004.824108 99.205 -179.2231
4033.844715 99.294 -179.2906
4063.075616 99.380 -179.3626
4092.518337 99.464 -179.4388
4122.174412 99.545 -179.5185
4152.045387 99.622 -179.6002
4182.132820 99.695 -179.6822
4212.438278 99.763 -179.7625
4242.963342 99.828 -179.8389
4273.709604 99.889 -179.9095
4304.678665 99.946 -179.9724
4335.872141 99.999 179.9736
4367.291658 100.048 179.9291
4398.938854 100.093 179.8936
4430.815378 100.135 179.8661
4462.922893 100.174 179.8444
4495.263072 100.209 179.8253
4527.837601 100.240 179.8046
4560.648179 100.267 179.7778
4593.696515 100.289 179.7396
4626.984334 100.307 179.6849
4660.513370 100.320 179.6087
4694.285371 100.329 179.5065
4728.302098 100.332 179.3749
4762.565324 100.330 179.2112
4797.076835 100.322 179.0139
4831.838432 100.310 178.7825
4866.851925 100.292 178.5179
4902.119140 100.269 178.2221
4937.641916 100.240 177.8981
4973.422105 100.207 177.5502
5009.461572 100.167 177.1834
5045.762195 100.122 176.8040
5082.325868 100.071 176.4189
5119.154496 100.013 176.0359
5156.250000 99.949 175.6639
5193.614313 99.877 175.3122
5231.249383 99.799 174.9908
5269.157173 99.713 174.7105
5307.339658 99.621 174.4820
5345.798829 99.522 174.3158
5384.536691 99.418 174.2221
5423.555263 99.310 174.2097
5462.856580 99.198 174.2860
5502.442691 99.085 174.4564
5542.315659 98.974 174.7242
5582.477563 98.866 175.0901
5622.930497 98.764 175.5525
5663.676569 98.672 176.1076
5704.717904 98.592 176.7501
5746.056642 98.526 177.4733
5787.694937 98.479 178.2700
5829.634960 98.451 179.1329
5871.878898 98.445 -179.9455
5914.428953 98.463 -178.9725
5957.287343 98.506 -177.9565
6000.456303 98.575 -176.9067
6043.938083 98.672 -175.8346
6087.734950 98.795 -174.7544
6131.849187 98.944 -173.6838
6176.283094 99.118 -172.6440
6221.038987 99.316 -171.6593
6266.119200 99.535 -170.7564
6311.526083 99.772 -169.9627
6357.262002 100.024 -169.3052
6403.329344 100.290 -168.8089
6449.730508 100.565 -168.4960
6496.467914 100.847 -168.3852
6543.543998 101.132 -168.4917
6590.961215 101.420 -168.8274
6638.722037 101.707 -169.4011
6686.828954 101.991 -170.2194
6735.284473 102.271 -171.2868
6784.091120 102.542 -172.6060
6833.251441 102.803 -174.1774
6882.767998 103.050 -175.9991
6932.643372 103.279 -178.0663
6982.880164 103.487 179.6292
7033.480992 103.670 177.0993
7084.448495 103.823 174.3600
7135.785329 103.942 171.4313
7187.494171 104.023 168.3371
7239.577717 104.063 165.1047
7292.038681 104.058 161.7647
7344.879799 104.005 158.3499
7398.103826 103.904 154.8949
7451.713536 103.751 151.4351
7505.711724 103.547 148.0057
7560.101205 103.291 144.6404
7614.884815 102.984 141.3707
7670.065409 102.627 138.2235
7725.645865 102.223 135.2208
7781.629080 101.774 132.3782
7838.017972 101.283 129.7046
7894.815481 100.752 127.2029
7952.024569 100.184 124.8721
8009.648217 99.581 122.7100
8067.689429 98.943 120.7169
8126.151233 98.271 118.8996
8185.036674 97.563 117.2745
8244.348824 96.819 115.8710
8304.090774 96.038 114.7336
8364.265639 95.220 113.9239
8424.876556 94.366 113.5253
8485.926684 93.480 113.6506
8547.419207 92.570 114.4607
8609.357330 91.647 116.2016
8671.744282 90.734 119.2836
8734.583316 89.861 124.4447
8797.877707 89.076 133.0690
8861.630756 88.439 147.5640
8925.845785 88.015 170.1142
8990.526143 87.854 -163.6650
9055.675202 87.971 -143.3727
9121.296357 88.336 -130.9796
9187.393031 88.888 -123.8519
9253.968668 89.561 -119.8643
9321.026740 90.295 -117.8474
9388.570742 91.047 -117.1770
9456.604196 91.786 -117.5035
9525.130648 92.491 -118.6177
9594.153671 93.148 -120.3841
9663.676863 93.747 -122.7075
9733.703850 94.280 -125.5148
9804.238280 94.740 -128.7443
9875.283832 95.123 -132.3388
9946.844210 95.424 -136.2417
10018.923143 95.640 -140.3944
10091.524390 95.769 -144.7351
10164.651736 95.808 -149.1994
10238.308993 95.759 -153.7216
10312.500000 95.623 -158.2372
10387.228626 95.404 -162.6853
10462.498767 95.105 -167.0101
10538.314345 94.731 -171.1618
10614.679315 94.288 -175.0964
10691.597657 93.780 -178.7740
10769.073381 93.213 177.8422
10847.110526 92.590 174.7885
10925.713161 91.917 172.1021
11004.885382 91.196 169.8226
11084.631318 90.433 167.9934
11164.955126 89.630 166.6614
11245.860993 88.792 165.8775
11327.353138 87.925 165.6945
11409.435808 87.035 166.1653
11492.113283 86.129 167.3368
11575.389873 85.219 169.2400
11659.269920 84.316 171.8755
11743.757796 83.440 175.1913
11828.857906 82.612 179.0601
11914.574686 81.861 -176.7360
12000.912606 81.218 -172.4961
12087.876166 80.714 -168.5611
12175.469900 80.374 -165.2532
12263.698373 80.209 -162.8220
12352.566187 80.213 -161.4203
12442.077974 80.366 -161.1112
12532.238400 80.642 -161.8931
12623.052165 81.012 -163.7291
12714.524005 81.453 -166.5698
12806.658687 81.948 -170.3683
12899.461015 82.483 -175.0867
12992.935827 83.047 179.3060
13087.087996 83.632 172.8412
13181.922430 84.227 165.5625
13277.444074 84.825 157.5373
13373.657907 85.414 148.8640
13470.568945 85.985 139.6716
13568.182241 86.530 130.1110
13666.502883 87.039 120.3392
13765.535996 87.505 110.5037
13865.286744 87.920 100.7308
13965.760328 88.280 91.1203
14066.961984 88.581 81.7474
14168.896989 88.822 72.6660
14271.570658 89.005 63.9127
14374.988342 89.133 55.5086
14479.155433 89.213 47.4597
14584.077362 89.252 39.7581
14689.759598 89.256 32.3852
14796.207652 89.230 25.3160
14903.427072 89.176 18.5247
15011.423448 89.097 11.9878
15120.202410 88.992 5.6860
15229.769630 88.862 -0.3968
15340.130819 88.708 -6.2745
15451.291730 88.532 -11.9615
15563.258160 88.336 -17.4742
15676.035944 88.124 -22.8326
15789.630962 87.898 -28.0606
15904.049137 87.660 -33.1852
16019.296433 87.410 -38.2346
16135.378859 87.149 -43.2348
16252.302465 86.873 -48.2066
16370.073348 86.579 -53.1628
16488.697648 86.262 -58.1071
16608.181548 85.917 -63.0333
16728.531278 85.540 -67.9274
16849.753112 85.128 -72.7694
16971.853368 84.680 -77.5371
17094.838414 84.197 -82.2092
17218.714660 83.684 -86.7693
17343.488565 83.145 -91.2083
17469.166632 82.592 -95.5278
17595.755415 82.036 -99.7430
17723.261512 81.494 -103.8845
17851.691571 80.988 -108.0011
17981.052287 80.537 -112.1628
18111.350404 80.165 -116.4613
18242.592715 79.886 -121.0084
18374.786062 79.706 -125.9283
18507.937336 79.617 -131.3453
18642.053479 79.599 -137.3667
18777.141484 79.623 -144.0665
18913.208391 79.660 -151.4684
19050.261296 79.682 -159.5270
19188.307342 79.669 -168.1023
19327.353727 79.614 -176.9303
19467.407699 79.518 174.3978
19608.476560 79.394 166.4211
19750.567664 79.266 159.7446
19893.688419 79.159 154.9344
20037.846286 79.099 152.4171
