* Measurement data measured by REW V5.31.3
* Source: EXCL: Headset (USB-C to 3.5mm Headphone Jack Adapter), MICROPHONE (Master Volume), 0, volume: 0.250
* Format: 256k Log Swept Sine, 1 sweep at -12.0 dBFS with no timing reference
* Dated: Feb 9, 2025 6:16:22 PM
* REW Settings:
*  C-weighting compensation: Off
*  Target level: 75.0 dB
* Note: ; 
* Measurement: Satyr 2 (Geekria) L2
* Smoothing: 1/6 octave
* Frequency Step: 96 ppo
* Start Frequency: 20.0 Hz
*
* Freq(Hz) SPL(dB) Phase(degrees)
20.141602 91.089 -29.0467
20.287556 91.107 -29.2617
20.434568 91.129 -29.5501
20.582645 91.153 -29.9048
20.731796 91.175 -30.3174
20.882027 91.193 -30.7793
21.033346 91.203 -31.2816
21.185763 91.205 -31.8158
21.339284 91.199 -32.3741
21.493917 91.183 -32.9492
21.649671 91.160 -33.5347
21.806553 91.130 -34.1254
21.964572 91.094 -34.7173
22.123737 91.056 -35.3075
22.284054 91.016 -35.8945
22.445534 90.978 -36.4780
22.608183 90.942 -37.0587
22.772012 90.910 -37.6383
22.937027 90.885 -38.2191
23.103238 90.867 -38.8039
23.270654 90.858 -39.3953
23.439282 90.858 -39.9958
23.609133 90.869 -40.6075
23.780215 90.892 -41.2319
23.952536 90.927 -41.8696
24.126106 90.975 -42.5207
24.300934 91.036 -43.1845
24.477028 91.109 -43.8596
24.654399 91.194 -44.5443
24.833055 91.290 -45.2365
25.013005 91.394 -45.9337
25.194260 91.506 -46.6332
25.376828 91.623 -47.3321
25.560719 91.742 -48.0273
25.745942 91.862 -48.7159
25.932508 91.979 -49.3946
26.120426 92.092 -50.0605
26.309705 92.199 -50.7112
26.500356 92.299 -51.3448
26.692388 92.391 -51.9606
26.885812 92.475 -52.5590
27.080638 92.552 -53.1417
27.276876 92.621 -53.7117
27.474535 92.685 -54.2733
27.673627 92.745 -54.8313
27.874161 92.804 -55.3909
28.076149 92.863 -55.9568
28.279600 92.926 -56.5329
28.484526 92.996 -57.1215
28.690937 93.076 -57.7234
28.898843 93.168 -58.3378
29.108256 93.276 -58.9625
29.319186 93.399 -59.5945
29.531645 93.540 -60.2303
29.745644 93.697 -60.8670
29.961193 93.868 -61.5021
30.178304 94.051 -62.1344
30.396989 94.241 -62.7636
30.617258 94.434 -63.3904
30.839123 94.623 -64.0160
31.062596 94.804 -64.6416
31.287688 94.972 -65.2683
31.514412 95.121 -65.8967
31.742778 95.248 -66.5265
31.972800 95.350 -67.1573
32.204488 95.424 -67.7879
32.437855 95.471 -68.4174
32.672913 95.488 -69.0452
32.909674 95.478 -69.6711
33.148151 95.443 -70.2954
33.388356 95.383 -70.9190
33.630302 95.304 -71.5432
33.874001 95.207 -72.1691
34.119466 95.097 -72.7978
34.366710 94.978 -73.4299
34.615745 94.853 -74.0656
34.866585 94.728 -74.7046
35.119243 94.605 -75.3462
35.373731 94.490 -75.9899
35.630064 94.384 -76.6352
35.888254 94.293 -77.2818
36.148315 94.218 -77.9295
36.410261 94.163 -78.5785
36.674104 94.128 -79.2286
36.939860 94.114 -79.8798
37.207542 94.124 -80.5315
37.477163 94.155 -81.1832
37.748738 94.210 -81.8340
38.022281 94.286 -82.4836
38.297806 94.383 -83.1315
38.575327 94.501 -83.7781
38.854860 94.638 -84.4238
39.136419 94.793 -85.0691
39.420017 94.964 -85.7147
39.705671 95.152 -86.3605
39.993395 95.354 -87.0061
40.283203 95.569 -87.6505
40.575112 95.795 -88.2922
40.869136 96.032 -88.9300
41.165290 96.278 -89.5625
41.463591 96.531 -90.1890
41.764053 96.790 -90.8093
42.066693 97.054 -91.4240
42.371525 97.319 -92.0340
42.678567 97.585 -92.6408
42.987834 97.848 -93.2465
43.299341 98.106 -93.8530
43.613106 98.358 -94.4631
43.929145 98.601 -95.0793
44.247473 98.832 -95.7040
44.568109 99.050 -96.3393
44.891068 99.253 -96.9862
45.216367 99.439 -97.6449
45.544023 99.608 -98.3146
45.874054 99.758 -98.9933
46.206476 99.890 -99.6789
46.541307 100.003 -100.3685
46.878565 100.097 -101.0594
47.218266 100.174 -101.7488
47.560429 100.234 -102.4341
47.905072 100.278 -103.1127
48.252212 100.308 -103.7823
48.601867 100.326 -104.4417
48.954056 100.334 -105.0903
49.308798 100.332 -105.7286
49.666109 100.323 -106.3578
50.026010 100.309 -106.9797
50.388520 100.290 -107.5961
50.753656 100.270 -108.2086
51.121437 100.247 -108.8185
51.491884 100.225 -109.4271
51.865016 100.204 -110.0354
52.240851 100.185 -110.6443
52.619410 100.169 -111.2544
53.000712 100.155 -111.8658
53.384777 100.145 -112.4783
53.771625 100.137 -113.0915
54.161276 100.131 -113.7047
54.553751 100.126 -114.3173
54.949070 100.122 -114.9284
55.347254 100.118 -115.5376
55.748323 100.113 -116.1439
56.152298 100.105 -116.7467
56.559201 100.096 -117.3456
56.969052 100.083 -117.9403
57.381873 100.068 -118.5303
57.797686 100.050 -119.1158
58.216512 100.028 -119.6966
58.638373 100.004 -120.2727
59.063291 99.978 -120.8445
59.491288 99.949 -121.4123
59.922386 99.918 -121.9768
60.356608 99.885 -122.5385
60.793977 99.851 -123.0978
61.234515 99.815 -123.6550
61.678246 99.779 -124.2102
62.125192 99.743 -124.7637
62.575377 99.708 -125.3158
63.028824 99.673 -125.8671
63.485557 99.640 -126.4176
63.945599 99.609 -126.9673
64.408975 99.581 -127.5157
64.875709 99.554 -128.0620
65.345825 99.530 -128.6054
65.819348 99.509 -129.1452
66.296302 99.490 -129.6812
66.776713 99.474 -130.2131
67.260604 99.460 -130.7411
67.748002 99.448 -131.2655
68.238932 99.439 -131.7869
68.733420 99.431 -132.3056
69.231490 99.425 -132.8219
69.733170 99.420 -133.3362
70.238485 99.417 -133.8484
70.747463 99.414 -134.3586
71.260128 99.413 -134.8665
71.776508 99.413 -135.3718
72.296630 99.414 -135.8739
72.820521 99.416 -136.3722
73.348209 99.419 -136.8662
73.879720 99.423 -137.3553
74.415083 99.427 -137.8391
74.954326 99.431 -138.3176
75.497475 99.436 -138.7910
76.044561 99.440 -139.2596
76.595612 99.443 -139.7235
77.150655 99.445 -140.1829
77.709720 99.445 -140.6376
78.272837 99.443 -141.0874
78.840034 99.438 -141.5319
79.411342 99.431 -141.9709
79.986789 99.420 -142.4043
80.566406 99.406 -142.8321
81.150224 99.389 -143.2546
81.738272 99.369 -143.6721
82.330581 99.347 -144.0847
82.927182 99.323 -144.4927
83.528107 99.300 -144.8962
84.133386 99.278 -145.2953
84.743051 99.261 -145.6899
85.357134 99.251 -146.0802
85.975667 99.252 -146.4665
86.598682 99.266 -146.8492
87.226212 99.297 -147.2290
87.858289 99.348 -147.6063
88.494946 99.422 -147.9818
89.136217 99.520 -148.3557
89.782135 99.644 -148.7284
90.432733 99.791 -149.0998
91.088046 99.959 -149.4700
91.748108 100.145 -149.8394
92.412952 100.344 -150.2080
93.082615 100.550 -150.5761
93.757130 100.759 -150.9439
94.436533 100.964 -151.3115
95.120859 101.160 -151.6791
95.810144 101.345 -152.0467
96.504423 101.514 -152.4148
97.203734 101.666 -152.7835
97.908112 101.800 -153.1532
98.617595 101.916 -153.5240
99.332219 102.016 -153.8964
100.052021 102.101 -154.2704
100.777039 102.174 -154.6464
101.507311 102.236 -155.0246
102.242875 102.289 -155.4052
102.983769 102.336 -155.7886
103.730032 102.377 -156.1748
104.481702 102.413 -156.5639
105.238820 102.444 -156.9558
106.001424 102.469 -157.3499
106.769554 102.487 -157.7456
107.543250 102.496 -158.1420
108.322553 102.494 -158.5384
109.107503 102.481 -158.9340
109.898141 102.454 -159.3286
110.694508 102.414 -159.7220
111.496646 102.359 -160.1143
112.304596 102.290 -160.5052
113.118402 102.209 -160.8947
113.938104 102.117 -161.2824
114.763747 102.016 -161.6680
115.595372 101.909 -162.0511
116.433024 101.797 -162.4314
117.276746 101.684 -162.8086
118.126581 101.569 -163.1826
118.982575 101.456 -163.5536
119.844772 101.345 -163.9215
120.713217 101.236 -164.2862
121.587954 101.130 -164.6473
122.469031 101.024 -165.0043
123.356492 100.919 -165.3565
124.250384 100.814 -165.7030
125.150753 100.706 -166.0428
126.057647 100.595 -166.3749
126.971113 100.478 -166.6983
127.891198 100.357 -167.0123
128.817950 100.229 -167.3162
129.751418 100.094 -167.6099
130.691651 99.955 -167.8935
131.638696 99.811 -168.1674
132.592604 99.664 -168.4323
133.553425 99.518 -168.6891
134.521208 99.373 -168.9392
135.496004 99.235 -169.1844
136.477864 99.107 -169.4270
137.466839 98.991 -169.6694
138.462981 98.892 -169.9144
139.466340 98.811 -170.1647
140.476971 98.750 -170.4229
141.494925 98.710 -170.6911
142.520256 98.689 -170.9711
143.553016 98.685 -171.2640
144.593260 98.695 -171.5705
145.641043 98.713 -171.8907
146.696418 98.737 -172.2244
147.759441 98.761 -172.5707
148.830166 98.782 -172.9285
149.908651 98.796 -173.2965
150.994951 98.803 -173.6729
152.089123 98.800 -174.0561
153.191223 98.788 -174.4441
154.301310 98.767 -174.8351
155.419441 98.738 -175.2271
156.545674 98.704 -175.6185
157.680069 98.664 -176.0079
158.822683 98.622 -176.3941
159.973578 98.579 -176.7760
161.132813 98.536 -177.1525
162.300447 98.493 -177.5228
163.476543 98.452 -177.8855
164.661162 98.413 -178.2396
165.854364 98.375 -178.5837
167.056213 98.340 -178.9168
168.266772 98.307 -179.2380
169.486102 98.278 -179.5465
170.714268 98.251 -179.8417
171.951334 98.229 179.8767
173.197364 98.210 179.6091
174.452424 98.195 179.3558
175.716578 98.185 179.1167
176.989893 98.177 178.8921
178.272434 98.172 178.6819
179.564270 98.169 178.4865
180.865467 98.167 178.3055
182.176092 98.164 178.1389
183.496216 98.161 177.9865
184.825905 98.156 177.8478
186.165229 98.148 177.7225
187.514259 98.139 177.6101
188.873065 98.128 177.5103
190.241717 98.115 177.4223
191.620287 98.101 177.3458
193.008847 98.087 177.2799
194.407468 98.074 177.2238
195.816225 98.061 177.1761
197.235190 98.050 177.1354
198.664438 98.040 177.1004
200.104042 98.031 177.0696
201.554078 98.023 177.0419
203.014622 98.015 177.0160
204.485750 98.007 176.9912
205.967538 97.998 176.9671
207.460064 97.987 176.9432
208.963405 97.975 176.9191
210.477640 97.962 176.8942
212.002848 97.946 176.8678
213.539108 97.929 176.8390
215.086500 97.911 176.8069
216.645105 97.892 176.7705
218.215005 97.872 176.7290
219.796281 97.851 176.6816
221.389015 97.829 176.6276
222.993292 97.806 176.5667
224.609193 97.780 176.4981
226.236804 97.751 176.4218
227.876209 97.717 176.3371
229.527494 97.680 176.2437
231.190745 97.637 176.1411
232.866048 97.590 176.0292
234.553491 97.537 175.9079
236.253163 97.479 175.7770
237.965150 97.417 175.6369
239.689544 97.352 175.4882
241.426433 97.284 175.3318
243.175909 97.215 175.1693
244.938062 97.144 175.0023
246.712984 97.074 174.8326
248.500768 97.004 174.6622
250.301507 96.936 174.4926
252.115295 96.869 174.3256
253.942226 96.806 174.1626
255.782396 96.746 174.0046
257.635901 96.689 173.8527
259.502837 96.638 173.7073
261.383301 96.592 173.5690
263.277392 96.551 173.4379
265.185209 96.516 173.3141
267.106850 96.487 173.1973
269.042417 96.463 173.0874
270.992009 96.445 172.9838
272.955729 96.432 172.8858
274.933678 96.424 172.7929
276.925961 96.420 172.7041
278.932681 96.418 172.6187
280.953942 96.420 172.5358
282.989850 96.424 172.4548
285.040511 96.431 172.3751
287.106032 96.441 172.2963
289.186521 96.455 172.2182
291.282086 96.474 172.1405
293.392836 96.498 172.0629
295.518881 96.529 171.9855
297.660333 96.565 171.9082
299.817302 96.607 171.8310
301.989902 96.654 171.7540
304.178245 96.706 171.6771
306.382446 96.759 171.6002
308.602620 96.813 171.5230
310.838882 96.865 171.4455
313.091348 96.914 171.3677
315.360137 96.958 171.2897
317.645367 96.996 171.2115
319.947156 97.027 171.1333
322.265625 97.050 171.0549
324.600895 97.063 170.9766
326.953086 97.067 170.8983
329.322323 97.061 170.8202
331.708729 97.043 170.7427
334.112427 97.016 170.6663
336.533543 96.977 170.5911
338.972204 96.929 170.5176
341.428536 96.870 170.4461
343.902668 96.803 170.3766
346.394729 96.729 170.3093
348.904848 96.648 170.2444
351.433156 96.564 170.1819
353.979786 96.477 170.1219
356.544869 96.391 170.0647
359.128540 96.309 170.0106
361.730934 96.232 169.9598
364.352185 96.165 169.9128
366.992431 96.110 169.8695
369.651810 96.070 169.8300
372.330459 96.046 169.7940
375.028519 96.040 169.7610
377.746130 96.052 169.7304
380.483434 96.082 169.7014
383.240574 96.128 169.6732
386.017693 96.188 169.6451
388.814937 96.260 169.6161
391.632450 96.340 169.5857
394.470380 96.427 169.5531
397.328875 96.517 169.5177
400.208084 96.607 169.4791
403.108157 96.697 169.4372
406.029245 96.784 169.3921
408.971500 96.868 169.3441
411.935076 96.948 169.2937
414.920127 97.024 169.2416
417.926810 97.098 169.1886
420.955280 97.168 169.1355
424.005695 97.237 169.0829
427.078215 97.305 169.0315
430.173000 97.373 168.9817
433.290211 97.440 168.9338
436.430010 97.506 168.8878
439.592562 97.572 168.8438
442.778031 97.635 168.8014
445.986583 97.694 168.7607
449.218386 97.748 168.7222
452.473607 97.795 168.6867
455.752418 97.833 168.6561
459.054987 97.860 168.6329
462.381489 97.876 168.6205
465.732096 97.880 168.6229
469.106983 97.873 168.6442
472.506325 97.854 168.6886
475.930301 97.824 168.7594
479.379088 97.786 168.8587
482.852867 97.741 168.9872
486.351817 97.691 169.1436
489.876123 97.638 169.3248
493.425968 97.584 169.5261
497.001536 97.529 169.7415
500.603014 97.476 169.9646
504.230589 97.423 170.1885
507.884452 97.373 170.4071
511.564792 97.323 170.6147
515.271802 97.274 170.8071
519.005673 97.227 170.9810
522.766602 97.180 171.1346
526.554785 97.134 171.2675
530.370418 97.091 171.3799
534.213700 97.052 171.4733
538.084833 97.018 171.5493
541.984018 96.990 171.6102
545.911457 96.970 171.6583
549.867357 96.958 171.6962
553.851922 96.953 171.7264
557.865362 96.957 171.7513
561.907884 96.966 171.7731
565.979700 96.980 171.7938
570.081022 96.996 171.8148
574.212064 97.013 171.8375
578.373042 97.029 171.8632
582.564171 97.041 171.8929
586.785671 97.049 171.9272
591.037762 97.051 171.9669
595.320665 97.046 172.0120
599.634604 97.035 172.0628
603.979804 97.016 172.1190
608.356491 96.991 172.1804
612.764893 96.960 172.2466
617.205240 96.923 172.3174
621.677763 96.882 172.3923
626.182696 96.839 172.4706
630.720274 96.795 172.5516
635.290733 96.752 172.6345
639.894312 96.712 172.7183
644.531250 96.677 172.8022
649.201789 96.648 172.8851
653.906173 96.627 172.9661
658.644647 96.614 173.0442
663.417457 96.610 173.1187
668.224854 96.613 173.1888
673.067086 96.622 173.2541
677.944408 96.636 173.3142
682.857073 96.653 173.3686
687.805336 96.672 173.4172
692.789457 96.690 173.4597
697.809695 96.706 173.4962
702.866312 96.720 173.5265
707.959571 96.729 173.5508
713.089738 96.733 173.5690
718.257080 96.733 173.5815
723.461867 96.727 173.5887
728.704370 96.716 173.5913
733.984862 96.700 173.5905
739.303619 96.680 173.5873
744.660918 96.657 173.5834
750.057038 96.631 173.5801
755.492260 96.603 173.5792
760.966869 96.572 173.5822
766.481148 96.540 173.5907
772.035387 96.506 173.6062
777.629873 96.469 173.6299
783.264900 96.430 173.6629
788.940760 96.388 173.7059
794.657750 96.341 173.7591
800.416168 96.290 173.8222
806.216313 96.235 173.8944
812.058489 96.174 173.9742
817.943000 96.107 174.0600
823.870152 96.036 174.1499
829.840255 95.961 174.2421
835.853619 95.881 174.3351
841.910559 95.799 174.4280
848.011390 95.714 174.5201
854.156430 95.628 174.6114
860.346000 95.543 174.7016
866.580422 95.459 174.7903
872.860020 95.378 174.8764
879.185124 95.302 174.9581
885.556062 95.232 175.0330
891.973166 95.168 175.0983
898.436771 95.113 175.1512
904.947215 95.067 175.1888
911.504835 95.030 175.2084
918.109975 95.004 175.2078
924.762978 94.987 175.1858
931.464192 94.981 175.1417
938.213966 94.983 175.0761
945.012651 94.995 174.9903
951.860602 95.013 174.8866
958.758176 95.039 174.7683
965.705733 95.069 174.6393
972.703635 95.104 174.5038
979.752246 95.143 174.3659
986.851935 95.185 174.2290
994.003071 95.230 174.0953
1001.206027 95.278 173.9662
1008.461179 95.329 173.8421
1015.768904 95.384 173.7229
1023.129584 95.444 173.6082
1030.543603 95.509 173.4976
1038.011347 95.580 173.3908
1045.533205 95.657 173.2877
1053.109569 95.742 173.1883
1060.740836 95.833 173.0929
1068.427401 95.932 173.0017
1076.169666 96.037 172.9148
1083.968035 96.149 172.8320
1091.822915 96.264 172.7526
1099.734713 96.383 172.6752
1107.703844 96.503 172.5980
1115.730723 96.623 172.5182
1123.815768 96.742 172.4323
1131.959400 96.857 172.3365
1140.162045 96.967 172.2266
1148.424129 97.073 172.0990
1156.746083 97.172 171.9507
1165.128342 97.266 171.7801
1173.571343 97.353 171.5862
1182.075524 97.436 171.3691
1190.641331 97.513 171.1298
1199.269209 97.587 170.8700
1207.959608 97.657 170.5917
1216.712981 97.723 170.2971
1225.529785 97.787 169.9888
1234.410479 97.846 169.6699
1243.355526 97.900 169.3448
1252.365393 97.950 169.0184
1261.440549 97.994 168.6957
1270.581467 98.031 168.3813
1279.788624 98.063 168.0786
1289.062500 98.087 167.7904
1298.403578 98.105 167.5187
1307.812346 98.117 167.2651
1317.289293 98.123 167.0309
1326.834914 98.123 166.8173
1336.449707 98.119 166.6252
1346.134173 98.111 166.4554
1355.888816 98.099 166.3088
1365.714145 98.084 166.1860
1375.610673 98.066 166.0867
1385.578915 98.047 166.0093
1395.619391 98.026 165.9511
1405.732624 98.004 165.9087
1415.919142 97.981 165.8790
1426.179476 97.958 165.8596
1436.514160 97.933 165.8499
1446.923734 97.908 165.8503
1457.408740 97.883 165.8619
1467.969724 97.859 165.8858
1478.607238 97.838 165.9225
1489.321836 97.819 165.9717
1500.114076 97.804 166.0320
1510.984521 97.793 166.1014
1521.933737 97.785 166.1784
1532.962297 97.781 166.2624
1544.070773 97.780 166.3542
1555.259747 97.781 166.4564
1566.529800 97.784 166.5721
1577.881521 97.787 166.7051
1589.315501 97.791 166.8590
1600.832336 97.796 167.0372
1612.432627 97.802 167.2424
1624.116978 97.808 167.4767
1635.886000 97.817 167.7402
1647.740304 97.828 168.0308
1659.680509 97.843 168.3440
1671.707238 97.861 168.6744
1683.821118 97.884 169.0165
1696.022780 97.911 169.3660
1708.312860 97.943 169.7202
1720.692000 97.979 170.0780
1733.160843 98.019 170.4388
1745.720041 98.063 170.8025
1758.370248 98.112 171.1685
1771.112124 98.165 171.5363
1783.946332 98.221 171.9051
1796.873543 98.281 172.2737
1809.894429 98.344 172.6405
1823.009670 98.410 173.0031
1836.219950 98.479 173.3577
1849.525956 98.551 173.6997
1862.928384 98.626 174.0244
1876.427931 98.702 174.3282
1890.025301 98.781 174.6085
1903.721204 98.862 174.8635
1917.516352 98.944 175.0912
1931.411466 99.027 175.2899
1945.407270 99.110 175.4587
1959.504493 99.192 175.5977
1973.703870 99.272 175.7079
1988.006142 99.349 175.7904
2002.412054 99.421 175.8456
2016.922357 99.488 175.8743
2031.537808 99.548 175.8775
2046.259169 99.600 175.8566
2061.087206 99.645 175.8126
2076.022694 99.683 175.7456
2091.066410 99.712 175.6552
2106.219139 99.735 175.5397
2121.481671 99.751 175.3976
2136.854802 99.762 175.2266
2152.339333 99.769 175.0248
2167.936071 99.772 174.7908
2183.645829 99.772 174.5241
2199.469427 99.770 174.2252
2215.407689 99.767 173.8956
2231.461446 99.762 173.5370
2247.631536 99.758 173.1518
2263.918800 99.753 172.7416
2280.324089 99.747 172.3081
2296.848258 99.742 171.8524
2313.492167 99.735 171.3757
2330.256685 99.727 170.8795
2347.142685 99.718 170.3658
2364.151049 99.705 169.8376
2381.282662 99.689 169.2983
2398.538418 99.670 168.7518
2415.919216 99.647 168.2020
2433.425962 99.621 167.6522
2451.059570 99.592 167.1055
2468.820958 99.560 166.5640
2486.711052 99.525 166.0296
2504.730786 99.490 165.5035
2522.881098 99.454 164.9861
2541.162934 99.419 164.4772
2559.577248 99.385 163.9763
2578.125000 99.354 163.4821
2596.807157 99.327 162.9923
2615.624692 99.305 162.5042
2634.578586 99.288 162.0147
2653.669829 99.276 161.5210
2672.899414 99.270 161.0217
2692.268345 99.269 160.5165
2711.777632 99.273 160.0073
2731.428290 99.280 159.4977
2751.221345 99.288 158.9937
2771.157829 99.297 158.5022
2791.238781 99.305 158.0313
2811.465248 99.311 157.5886
2831.838284 99.313 157.1809
2852.358952 99.311 156.8136
2873.028321 99.303 156.4906
2893.847468 99.289 156.2147
2914.817480 99.266 155.9880
2935.939449 99.233 155.8128
2957.214476 99.191 155.6920
2978.643672 99.137 155.6291
3000.228152 99.072 155.6287
3021.969041 98.996 155.6961
3043.867475 98.909 155.8369
3065.924593 98.812 156.0566
3088.141547 98.706 156.3604
3110.519493 98.594 156.7527
3133.059600 98.478 157.2362
3155.763041 98.360 157.8119
3178.631001 98.243 158.4779
3201.664672 98.131 159.2296
3224.865254 98.025 160.0591
3248.233957 97.930 160.9550
3271.771999 97.847 161.9032
3295.480608 97.779 162.8873
3319.361019 97.727 163.8892
3343.414477 97.691 164.8902
3367.642236 97.673 165.8719
3392.045560 97.672 166.8170
3416.625721 97.687 167.7101
3441.383999 97.718 168.5381
3466.321686 97.763 169.2903
3491.440082 97.820 169.9590
3516.740496 97.889 170.5384
3542.224247 97.967 171.0252
3567.892664 98.054 171.4183
3593.747085 98.148 171.7187
3619.788858 98.246 171.9290
3646.019340 98.349 172.0533
3672.439900 98.453 172.0971
3699.051913 98.558 172.0667
3725.856768 98.662 171.9699
3752.855862 98.765 171.8152
3780.050603 98.865 171.6118
3807.442408 98.961 171.3696
3835.032705 99.052 171.0985
3862.822933 99.139 170.8080
3890.814540 99.221 170.5067
3919.008986 99.298 170.2021
3947.407741 99.371 169.9000
3976.012284 99.440 169.6047
4004.824108 99.505 169.3183
4033.844715 99.567 169.0416
4063.075616 99.625 168.7737
4092.518337 99.679 168.5132
4122.174412 99.729 168.2578
4152.045387 99.776 168.0060
4182.132820 99.817 167.7569
4212.438278 99.853 167.5112
4242.963342 99.883 167.2712
4273.709604 99.906 167.0411
4304.678665 99.923 166.8264
4335.872141 99.931 166.6336
4367.291658 99.933 166.4696
4398.938854 99.928 166.3410
4430.815378 99.917 166.2533
4462.922893 99.900 166.2103
4495.263072 99.877 166.2139
4527.837601 99.851 166.2637
4560.648179 99.821 166.3576
4593.696515 99.789 166.4916
4626.984334 99.756 166.6601
4660.513370 99.722 166.8564
4694.285371 99.688 167.0729
4728.302098 99.655 167.3016
4762.565324 99.626 167.5342
4797.076835 99.599 167.7623
4831.838432 99.577 167.9775
4866.851925 99.561 168.1718
4902.119140 99.550 168.3369
4937.641916 99.547 168.4649
4973.422105 99.550 168.5478
5009.461572 99.560 168.5778
5045.762195 99.576 168.5477
5082.325868 99.598 168.4510
5119.154496 99.624 168.2828
5156.250000 99.651 168.0402
5193.614313 99.678 167.7223
5231.249383 99.702 167.3314
5269.157173 99.721 166.8725
5307.339658 99.732 166.3540
5345.798829 99.733 165.7873
5384.536691 99.721 165.1866
5423.555263 99.695 164.5686
5462.856580 99.654 163.9518
5502.442691 99.598 163.3557
5542.315659 99.526 162.8005
5582.477563 99.441 162.3062
5622.930497 99.344 161.8923
5663.676569 99.238 161.5768
5704.717904 99.125 161.3762
5746.056642 99.011 161.3046
5787.694937 98.900 161.3732
5829.634960 98.798 161.5889
5871.878898 98.710 161.9532
5914.428953 98.641 162.4607
5957.287343 98.597 163.0979
6000.456303 98.583 163.8430
6043.938083 98.601 164.6661
6087.734950 98.652 165.5308
6131.849187 98.736 166.3964
6176.283094 98.851 167.2206
6221.038987 98.992 167.9628
6266.119200 99.155 168.5868
6311.526083 99.333 169.0623
6357.262002 99.522 169.3669
6403.329344 99.715 169.4855
6449.730508 99.909 169.4101
6496.467914 100.099 169.1384
6543.543998 100.281 168.6724
6590.961215 100.455 168.0167
6638.722037 100.617 167.1772
6686.828954 100.767 166.1604
6735.284473 100.905 164.9727
6784.091120 101.029 163.6198
6833.251441 101.139 162.1075
6882.767998 101.236 160.4413
6932.643372 101.316 158.6269
6982.880164 101.381 156.6705
7033.480992 101.429 154.5790
7084.448495 101.459 152.3602
7135.785329 101.469 150.0229
7187.494171 101.457 147.5770
7239.577717 101.423 145.0331
7292.038681 101.366 142.4022
7344.879799 101.284 139.6946
7398.103826 101.177 136.9194
7451.713536 101.046 134.0827
7505.711724 100.891 131.1860
7560.101205 100.714 128.2254
7614.884815 100.517 125.1896
7670.065409 100.300 122.0596
7725.645865 100.067 118.8083
7781.629080 99.818 115.4009
7838.017972 99.554 111.7953
7894.815481 99.274 107.9436
7952.024569 98.977 103.7921
8009.648217 98.660 99.2807
8067.689429 98.322 94.3396
8126.151233 97.958 88.8830
8185.036674 97.568 82.7971
8244.348824 97.151 75.9208
8304.090774 96.710 68.0175
8364.265639 96.250 58.7390
8424.876556 95.781 47.5995
8485.926684 95.318 34.0348
8547.419207 94.882 17.7203
8609.357330 94.497 -0.7352
8671.744282 94.188 -19.4043
8734.583316 93.981 -36.1108
8797.877707 93.894 -49.8542
8861.630756 93.937 -60.7997
8925.845785 94.106 -69.5474
8990.526143 94.388 -76.6876
9055.675202 94.762 -82.6818
9121.296357 95.206 -87.8691
9187.393031 95.697 -92.4982
9253.968668 96.217 -96.7537
9321.026740 96.747 -100.7766
9388.570742 97.275 -104.6760
9456.604196 97.790 -108.5376
9525.130648 98.281 -112.4279
9594.153671 98.741 -116.3979
9663.676863 99.162 -120.4852
9733.703850 99.536 -124.7139
9804.238280 99.856 -129.0958
9875.283832 100.117 -133.6301
9946.844210 100.311 -138.3030
10018.923143 100.434 -143.0876
10091.524390 100.481 -147.9453
10164.651736 100.449 -152.8264
10238.308993 100.336 -157.6741
10312.500000 100.144 -162.4281
10387.228626 99.876 -167.0298
10462.498767 99.536 -171.4269
10538.314345 99.132 -175.5772
10614.679315 98.671 -179.4515
10691.597657 98.163 176.9656
10769.073381 97.617 173.6752
10847.110526 97.043 170.6646
10925.713161 96.449 167.9090
11004.885382 95.844 165.3732
11084.631318 95.234 163.0146
11164.955126 94.625 160.7864
11245.860993 94.018 158.6412
11327.353138 93.416 156.5341
11409.435808 92.817 154.4249
11492.113283 92.220 152.2797
11575.389873 91.621 150.0704
11659.269920 91.018 147.7733
11743.757796 90.408 145.3658
11828.857906 89.790 142.8229
11914.574686 89.163 140.1131
12000.912606 88.529 137.1948
12087.876166 87.891 134.0133
12175.469900 87.251 130.4985
12263.698373 86.615 126.5637
12352.566187 85.986 122.1028
12442.077974 85.370 116.9875
12532.238400 84.772 111.0636
12623.052165 84.195 104.1482
12714.524005 83.646 96.0376
12806.658687 83.129 86.5403
12899.461015 82.652 75.5591
12992.935827 82.220 63.2349
13087.087996 81.840 50.0757
13181.922430 81.520 36.9172
13277.444074 81.266 24.6300
13373.657907 81.088 13.7974
13470.568945 80.994 4.6182
13568.182241 80.992 -2.9844
13666.502883 81.088 -9.2189
13765.535996 81.285 -14.3320
13865.286744 81.580 -18.5692
13965.760328 81.963 -22.1616
14066.961984 82.420 -25.3216
14168.896989 82.933 -28.2392
14271.570658 83.480 -31.0761
14374.988342 84.043 -33.9609
14479.155433 84.605 -36.9867
14584.077362 85.151 -40.2129
14689.759598 85.672 -43.6703
14796.207652 86.160 -47.3688
14903.427072 86.609 -51.3041
15011.423448 87.018 -55.4645
15120.202410 87.383 -59.8348
15229.769630 87.704 -64.3995
15340.130819 87.979 -69.1439
15451.291730 88.208 -74.0543
15563.258160 88.388 -79.1169
15676.035944 88.518 -84.3181
15789.630962 88.597 -89.6423
15904.049137 88.623 -95.0724
16019.296433 88.594 -100.5897
16135.378859 88.511 -106.1745
16252.302465 88.372 -111.8071
16370.073348 88.180 -117.4686
16488.697648 87.936 -123.1418
16608.181548 87.640 -128.8115
16728.531278 87.296 -134.4641
16849.753112 86.905 -140.0874
16971.853368 86.470 -145.6708
17094.838414 85.992 -151.2037
17218.714660 85.474 -156.6758
17343.488565 84.917 -162.0754
17469.166632 84.323 -167.3910
17595.755415 83.696 -172.6124
17723.261512 83.039 -177.7351
17851.691571 82.360 177.2351
17981.052287 81.666 172.2753
18111.350404 80.970 167.3412
18242.592715 80.287 162.3650
18374.786062 79.632 157.2585
18507.937336 79.018 151.9216
18642.053479 78.456 146.2556
18777.141484 77.950 140.1792
18913.208391 77.496 133.6464
19050.261296 77.087 126.6655
19188.307342 76.712 119.3226
19327.353727 76.364 111.8076
19467.407699 76.042 104.4340
19608.476560 75.752 97.6339
19750.567664 75.509 91.9138
19893.688419 75.331 87.7693
20037.846286 75.237 85.5908
