* Measurement data measured by REW V5.31.3
* Source: EXCL: Headset (USB-C to 3.5mm Headphone Jack Adapter), MICROPHONE (Master Volume), 0, volume: 0.250
* Format: 256k Log Swept Sine, 1 sweep at -12.0 dBFS with no timing reference
* Dated: Feb 9, 2025 6:26:25 PM
* REW Settings:
*  C-weighting compensation: Off
*  Target level: 75.0 dB
* Note: ; 
* Measurement: Satyr 2 (Geekria) R6
* Smoothing: 1/6 octave
* Frequency Step: 96 ppo
* Start Frequency: 20.0 Hz
*
* Freq(Hz) SPL(dB) Phase(degrees)
20.141602 98.461 -50.5286
20.287556 98.473 -50.7533
20.434568 98.487 -51.0545
20.582645 98.501 -51.4237
20.731796 98.511 -51.8517
20.882027 98.515 -52.3294
21.033346 98.511 -52.8480
21.185763 98.498 -53.3994
21.339284 98.475 -53.9764
21.493917 98.443 -54.5729
21.649671 98.402 -55.1837
21.806553 98.354 -55.8047
21.964572 98.301 -56.4328
22.123737 98.244 -57.0660
22.284054 98.187 -57.7028
22.445534 98.132 -58.3428
22.608183 98.079 -58.9858
22.772012 98.032 -59.6320
22.937027 97.992 -60.2816
23.103238 97.960 -60.9347
23.270654 97.937 -61.5911
23.439282 97.924 -62.2500
23.609133 97.920 -62.9102
23.780215 97.927 -63.5702
23.952536 97.945 -64.2280
24.126106 97.973 -64.8819
24.300934 98.011 -65.5300
24.477028 98.058 -66.1709
24.654399 98.114 -66.8038
24.833055 98.177 -67.4284
25.013005 98.246 -68.0453
25.194260 98.320 -68.6554
25.376828 98.397 -69.2603
25.560719 98.475 -69.8617
25.745942 98.553 -70.4614
25.932508 98.629 -71.0611
26.120426 98.702 -71.6622
26.309705 98.772 -72.2660
26.500356 98.837 -72.8732
26.692388 98.898 -73.4843
26.885812 98.953 -74.0997
27.080638 99.004 -74.7197
27.276876 99.051 -75.3445
27.474535 99.094 -75.9743
27.673627 99.136 -76.6092
27.874161 99.177 -77.2489
28.076149 99.219 -77.8931
28.279600 99.265 -78.5411
28.484526 99.318 -79.1917
28.690937 99.380 -79.8435
28.898843 99.453 -80.4950
29.108256 99.539 -81.1446
29.319186 99.641 -81.7910
29.531645 99.759 -82.4335
29.745644 99.892 -83.0718
29.961193 100.038 -83.7063
30.178304 100.195 -84.3380
30.396989 100.359 -84.9680
30.617258 100.525 -85.5979
30.839123 100.688 -86.2289
31.062596 100.843 -86.8618
31.287688 100.986 -87.4973
31.514412 101.110 -88.1352
31.742778 101.213 -88.7752
31.972800 101.291 -89.4167
32.204488 101.342 -90.0591
32.437855 101.365 -90.7016
32.672913 101.359 -91.3441
32.909674 101.324 -91.9864
33.148151 101.264 -92.6286
33.388356 101.179 -93.2710
33.630302 101.072 -93.9139
33.874001 100.949 -94.5574
34.119466 100.811 -95.2017
34.366710 100.665 -95.8469
34.615745 100.513 -96.4927
34.866585 100.361 -97.1389
35.119243 100.213 -97.7850
35.373731 100.072 -98.4302
35.630064 99.942 -99.0736
35.888254 99.826 -99.7138
36.148315 99.725 -100.3494
36.410261 99.643 -100.9789
36.674104 99.581 -101.6010
36.939860 99.539 -102.2149
37.207542 99.519 -102.8204
37.477163 99.520 -103.4182
37.748738 99.544 -104.0096
38.022281 99.590 -104.5965
38.297806 99.658 -105.1812
38.575327 99.746 -105.7661
38.854860 99.855 -106.3528
39.136419 99.982 -106.9429
39.420017 100.126 -107.5369
39.705671 100.286 -108.1350
39.993395 100.461 -108.7367
40.283203 100.650 -109.3415
40.575112 100.851 -109.9484
40.869136 101.063 -110.5566
41.165290 101.284 -111.1656
41.463591 101.513 -111.7747
41.764053 101.749 -112.3840
42.066693 101.988 -112.9933
42.371525 102.230 -113.6028
42.678567 102.472 -114.2128
42.987834 102.712 -114.8233
43.299341 102.948 -115.4342
43.613106 103.177 -116.0451
43.929145 103.396 -116.6552
44.247473 103.604 -117.2635
44.568109 103.799 -117.8691
44.891068 103.980 -118.4711
45.216367 104.144 -119.0686
45.544023 104.292 -119.6615
45.874054 104.422 -120.2498
46.206476 104.534 -120.8338
46.541307 104.628 -121.4141
46.878565 104.704 -121.9912
47.218266 104.763 -122.5658
47.560429 104.805 -123.1381
47.905072 104.832 -123.7084
48.252212 104.845 -124.2767
48.601867 104.844 -124.8433
48.954056 104.833 -125.4083
49.308798 104.812 -125.9718
49.666109 104.784 -126.5341
50.026010 104.749 -127.0951
50.388520 104.710 -127.6546
50.753656 104.668 -128.2120
51.121437 104.625 -128.7666
51.491884 104.582 -129.3178
51.865016 104.541 -129.8649
52.240851 104.502 -130.4079
52.619410 104.465 -130.9469
53.000712 104.432 -131.4826
53.384777 104.402 -132.0154
53.771625 104.375 -132.5461
54.161276 104.349 -133.0749
54.553751 104.325 -133.6021
54.949070 104.302 -134.1278
55.347254 104.279 -134.6516
55.748323 104.254 -135.1735
56.152298 104.228 -135.6930
56.559201 104.200 -136.2101
56.969052 104.169 -136.7248
57.381873 104.135 -137.2372
57.797686 104.098 -137.7471
58.216512 104.059 -138.2547
58.638373 104.016 -138.7596
59.063291 103.972 -139.2616
59.491288 103.926 -139.7603
59.922386 103.878 -140.2553
60.356608 103.830 -140.7464
60.793977 103.780 -141.2335
61.234515 103.730 -141.7168
61.678246 103.680 -142.1966
62.125192 103.630 -142.6734
62.575377 103.580 -143.1477
63.028824 103.531 -143.6198
63.485557 103.483 -144.0901
63.945599 103.437 -144.5586
64.408975 103.392 -145.0256
64.875709 103.349 -145.4911
65.345825 103.309 -145.9554
65.819348 103.271 -146.4184
66.296302 103.236 -146.8805
66.776713 103.204 -147.3415
67.260604 103.174 -147.8014
67.748002 103.147 -148.2597
68.238932 103.122 -148.7158
68.733420 103.099 -149.1690
69.231490 103.079 -149.6185
69.733170 103.060 -150.0637
70.238485 103.042 -150.5041
70.747463 103.027 -150.9391
71.260128 103.012 -151.3684
71.776508 102.999 -151.7918
72.296630 102.987 -152.2093
72.820521 102.977 -152.6209
73.348209 102.968 -153.0268
73.879720 102.959 -153.4270
74.415083 102.952 -153.8218
74.954326 102.946 -154.2111
75.497475 102.940 -154.5949
76.044561 102.934 -154.9735
76.595612 102.928 -155.3470
77.150655 102.921 -155.7159
77.709720 102.913 -156.0805
78.272837 102.903 -156.4412
78.840034 102.890 -156.7982
79.411342 102.875 -157.1520
79.986789 102.857 -157.5025
80.566406 102.836 -157.8503
81.150224 102.812 -158.1956
81.738272 102.786 -158.5387
82.330581 102.758 -158.8800
82.927182 102.729 -159.2199
83.528107 102.700 -159.5587
84.133386 102.673 -159.8966
84.743051 102.651 -160.2341
85.357134 102.635 -160.5714
85.975667 102.630 -160.9090
86.598682 102.638 -161.2472
87.226212 102.663 -161.5864
87.858289 102.707 -161.9268
88.494946 102.774 -162.2684
89.136217 102.864 -162.6115
89.782135 102.979 -162.9559
90.432733 103.117 -163.3016
91.088046 103.275 -163.6487
91.748108 103.451 -163.9971
92.412952 103.640 -164.3468
93.082615 103.836 -164.6976
93.757130 104.034 -165.0490
94.436533 104.228 -165.4006
95.120859 104.414 -165.7519
95.810144 104.588 -166.1024
96.504423 104.747 -166.4518
97.203734 104.888 -166.7999
97.908112 105.011 -167.1465
98.617595 105.116 -167.4915
99.332219 105.205 -167.8349
100.052021 105.279 -168.1765
100.777039 105.339 -168.5164
101.507311 105.389 -168.8545
102.242875 105.430 -169.1910
102.983769 105.464 -169.5263
103.730032 105.492 -169.8605
104.481702 105.516 -170.1940
105.238820 105.534 -170.5270
106.001424 105.546 -170.8595
106.769554 105.551 -171.1913
107.543250 105.548 -171.5222
108.322553 105.535 -171.8515
109.107503 105.510 -172.1790
109.898141 105.471 -172.5044
110.694508 105.419 -172.8273
111.496646 105.353 -173.1477
112.304596 105.274 -173.4654
113.118402 105.183 -173.7804
113.938104 105.080 -174.0926
114.763747 104.970 -174.4019
115.595372 104.853 -174.7081
116.433024 104.732 -175.0111
117.276746 104.610 -175.3106
118.126581 104.487 -175.6065
118.982575 104.366 -175.8984
119.844772 104.248 -176.1858
120.713217 104.132 -176.4685
121.587954 104.020 -176.7459
122.469031 103.909 -177.0181
123.356492 103.800 -177.2848
124.250384 103.690 -177.5463
125.150753 103.580 -177.8029
126.057647 103.466 -178.0550
126.971113 103.349 -178.3034
127.891198 103.226 -178.5488
128.817950 103.097 -178.7923
129.751418 102.962 -179.0347
130.691651 102.822 -179.2772
131.638696 102.676 -179.5207
132.592604 102.527 -179.7658
133.553425 102.376 179.9871
134.521208 102.227 179.7378
135.496004 102.081 179.4864
136.477864 101.943 179.2331
137.466839 101.816 178.9782
138.462981 101.702 178.7222
139.466340 101.604 178.4652
140.476971 101.524 178.2075
141.494925 101.462 177.9492
142.520256 101.417 177.6906
143.553016 101.388 177.4319
144.593260 101.372 177.1738
145.641043 101.365 176.9168
146.696418 101.363 176.6619
147.759441 101.363 176.4096
148.830166 101.361 176.1608
149.908651 101.353 175.9162
150.994951 101.339 175.6764
152.089123 101.317 175.4422
153.191223 101.287 175.2141
154.301310 101.249 174.9927
155.419441 101.205 174.7787
156.545674 101.157 174.5728
157.680069 101.106 174.3755
158.822683 101.053 174.1877
159.973578 101.001 174.0100
161.132813 100.951 173.8428
162.300447 100.904 173.6866
163.476543 100.859 173.5414
164.661162 100.819 173.4076
165.854364 100.783 173.2851
167.056213 100.751 173.1739
168.266772 100.724 173.0739
169.486102 100.702 172.9849
170.714268 100.687 172.9061
171.951334 100.677 172.8367
173.197364 100.673 172.7756
174.452424 100.676 172.7214
175.716578 100.684 172.6726
176.989893 100.698 172.6277
178.272434 100.717 172.5853
179.564270 100.739 172.5437
180.865467 100.763 172.5016
182.176092 100.788 172.4578
183.496216 100.813 172.4109
184.825905 100.837 172.3600
186.165229 100.860 172.3041
187.514259 100.881 172.2426
188.873065 100.900 172.1748
190.241717 100.917 172.1003
191.620287 100.933 172.0185
193.008847 100.948 171.9289
194.407468 100.963 171.8313
195.816225 100.977 171.7253
197.235190 100.991 171.6108
198.664438 101.005 171.4880
200.104042 101.018 171.3572
201.554078 101.030 171.2190
203.014622 101.040 171.0742
204.485750 101.048 170.9240
205.967538 101.052 170.7695
207.460064 101.053 170.6122
208.963405 101.050 170.4532
210.477640 101.044 170.2931
212.002848 101.033 170.1323
213.539108 101.020 169.9707
215.086500 101.003 169.8082
216.645105 100.983 169.6448
218.215005 100.961 169.4802
219.796281 100.936 169.3146
221.389015 100.909 169.1479
222.993292 100.879 168.9803
224.609193 100.845 168.8117
226.236804 100.807 168.6422
227.876209 100.765 168.4717
229.527494 100.716 168.3004
231.190745 100.662 168.1286
232.866048 100.602 167.9566
234.553491 100.537 167.7849
236.253163 100.466 167.6143
237.965150 100.392 167.4452
239.689544 100.314 167.2781
241.426433 100.233 167.1134
243.175909 100.152 166.9510
244.938062 100.070 166.7907
246.712984 99.989 166.6322
248.500768 99.909 166.4752
250.301507 99.831 166.3194
252.115295 99.757 166.1646
253.942226 99.686 166.0109
255.782396 99.619 165.8583
257.635901 99.557 165.7068
259.502837 99.501 165.5568
261.383301 99.450 165.4083
263.277392 99.405 165.2612
265.185209 99.367 165.1157
267.106850 99.334 164.9716
269.042417 99.308 164.8289
270.992009 99.287 164.6877
272.955729 99.272 164.5481
274.933678 99.261 164.4102
276.925961 99.254 164.2741
278.932681 99.250 164.1400
280.953942 99.249 164.0078
282.989850 99.250 163.8776
285.040511 99.254 163.7492
287.106032 99.260 163.6226
289.186521 99.269 163.4976
291.282086 99.282 163.3742
293.392836 99.300 163.2523
295.518881 99.324 163.1317
297.660333 99.352 163.0127
299.817302 99.387 162.8952
301.989902 99.426 162.7794
304.178245 99.468 162.6653
306.382446 99.512 162.5530
308.602620 99.556 162.4427
310.838882 99.599 162.3345
313.091348 99.638 162.2286
315.360137 99.672 162.1252
317.645367 99.700 162.0243
319.947156 99.720 161.9262
322.265625 99.732 161.8311
324.600895 99.734 161.7393
326.953086 99.727 161.6510
329.322323 99.709 161.5666
331.708729 99.681 161.4865
334.112427 99.643 161.4110
336.533543 99.594 161.3403
338.972204 99.534 161.2743
341.428536 99.466 161.2130
343.902668 99.389 161.1562
346.394729 99.305 161.1035
348.904848 99.215 161.0544
351.433156 99.122 161.0082
353.979786 99.027 160.9646
356.544869 98.933 160.9228
359.128540 98.843 160.8824
361.730934 98.759 160.8426
364.352185 98.685 160.8028
366.992431 98.624 160.7624
369.651810 98.577 160.7210
372.330459 98.547 160.6782
375.028519 98.535 160.6338
377.746130 98.540 160.5876
380.483434 98.563 160.5398
383.240574 98.601 160.4905
386.017693 98.653 160.4403
388.814937 98.715 160.3896
391.632450 98.786 160.3391
394.470380 98.862 160.2892
397.328875 98.940 160.2406
400.208084 99.019 160.1938
403.108157 99.096 160.1495
406.029245 99.170 160.1081
408.971500 99.241 160.0705
411.935076 99.307 160.0375
414.920127 99.370 160.0099
417.926810 99.430 159.9888
420.955280 99.487 159.9752
424.005695 99.543 159.9698
427.078215 99.598 159.9736
430.173000 99.653 159.9873
433.290211 99.708 160.0115
436.430010 99.764 160.0467
439.592562 99.821 160.0929
442.778031 99.876 160.1503
445.986583 99.930 160.2184
449.218386 99.982 160.2967
452.473607 100.028 160.3843
455.752418 100.069 160.4801
459.054987 100.104 160.5827
462.381489 100.130 160.6906
465.732096 100.148 160.8021
469.106983 100.157 160.9157
472.506325 100.158 161.0296
475.930301 100.151 161.1422
479.379088 100.137 161.2516
482.852867 100.117 161.3560
486.351817 100.091 161.4537
489.876123 100.062 161.5427
493.425968 100.030 161.6215
497.001536 99.995 161.6881
500.603014 99.958 161.7410
504.230589 99.919 161.7786
507.884452 99.878 161.7991
511.564792 99.834 161.8013
515.271802 99.789 161.7839
519.005673 99.741 161.7462
522.766602 99.691 161.6875
526.554785 99.639 161.6079
530.370418 99.588 161.5078
534.213700 99.537 161.3878
538.084833 99.489 161.2491
541.984018 99.445 161.0933
545.911457 99.404 160.9226
549.867357 99.369 160.7401
553.851922 99.337 160.5493
557.865362 99.309 160.3550
561.907884 99.282 160.1625
565.979700 99.255 159.9779
570.081022 99.226 159.8081
574.212064 99.192 159.6608
578.373042 99.153 159.5438
582.564171 99.107 159.4653
586.785671 99.052 159.4334
591.037762 98.989 159.4550
595.320665 98.918 159.5360
599.634604 98.840 159.6802
603.979804 98.755 159.8890
608.356491 98.666 160.1611
612.764893 98.575 160.4929
617.205240 98.483 160.8784
621.677763 98.393 161.3102
626.182696 98.307 161.7796
630.720274 98.228 162.2776
635.290733 98.158 162.7948
639.894312 98.100 163.3219
644.531250 98.056 163.8496
649.201789 98.026 164.3687
653.906173 98.013 164.8701
658.644647 98.015 165.3453
663.417457 98.033 165.7861
668.224854 98.065 166.1853
673.067086 98.109 166.5365
677.944408 98.161 166.8349
682.857073 98.218 167.0775
687.805336 98.278 167.2629
692.789457 98.338 167.3922
697.809695 98.394 167.4677
702.866312 98.445 167.4938
707.959571 98.488 167.4757
713.089738 98.523 167.4196
718.257080 98.550 167.3322
723.461867 98.566 167.2200
728.704370 98.574 167.0891
733.984862 98.573 166.9455
739.303619 98.565 166.7943
744.660918 98.549 166.6403
750.057038 98.527 166.4883
755.492260 98.500 166.3427
760.966869 98.467 166.2078
766.481148 98.431 166.0878
772.035387 98.389 165.9863
777.629873 98.344 165.9068
783.264900 98.294 165.8518
788.940760 98.239 165.8235
794.657750 98.180 165.8231
800.416168 98.115 165.8507
806.216313 98.046 165.9056
812.058489 97.973 165.9857
817.943000 97.895 166.0875
823.870152 97.815 166.2062
829.840255 97.732 166.3355
835.853619 97.649 166.4681
841.910559 97.565 166.5962
848.011390 97.483 166.7121
854.156430 97.402 166.8088
860.346000 97.324 166.8807
866.580422 97.248 166.9236
872.860020 97.175 166.9354
879.185124 97.105 166.9158
885.556062 97.038 166.8661
891.973166 96.974 166.7897
898.436771 96.914 166.6909
904.947215 96.857 166.5752
911.504835 96.805 166.4486
918.109975 96.758 166.3173
924.762978 96.717 166.1871
931.464192 96.682 166.0636
938.213966 96.654 165.9511
945.012651 96.634 165.8532
951.860602 96.623 165.7718
958.758176 96.619 165.7071
965.705733 96.625 165.6582
972.703635 96.638 165.6226
979.752246 96.660 165.5973
986.851935 96.689 165.5789
994.003071 96.725 165.5638
1001.206027 96.767 165.5486
1008.461179 96.816 165.5300
1015.768904 96.872 165.5051
1023.129584 96.934 165.4719
1030.543603 97.002 165.4290
1038.011347 97.077 165.3757
1045.533205 97.159 165.3125
1053.109569 97.248 165.2401
1060.740836 97.345 165.1598
1068.427401 97.448 165.0731
1076.169666 97.557 164.9816
1083.968035 97.671 164.8865
1091.822915 97.790 164.7885
1099.734713 97.911 164.6869
1107.703844 98.033 164.5803
1115.730723 98.155 164.4659
1123.815768 98.274 164.3402
1131.959400 98.390 164.1989
1140.162045 98.501 164.0377
1148.424129 98.607 163.8526
1156.746083 98.705 163.6405
1165.128342 98.797 163.3994
1173.571343 98.883 163.1288
1182.075524 98.962 162.8293
1190.641331 99.034 162.5033
1199.269209 99.102 162.1542
1207.959608 99.164 161.7864
1216.712981 99.222 161.4047
1225.529785 99.276 161.0139
1234.410479 99.325 160.6184
1243.355526 99.370 160.2222
1252.365393 99.410 159.8279
1261.440549 99.445 159.4377
1270.581467 99.475 159.0526
1279.788624 99.499 158.6731
1289.062500 99.516 158.2994
1298.403578 99.527 157.9315
1307.812346 99.531 157.5696
1317.289293 99.529 157.2142
1326.834914 99.519 156.8665
1336.449707 99.503 156.5284
1346.134173 99.481 156.2023
1355.888816 99.452 155.8915
1365.714145 99.418 155.5989
1375.610673 99.377 155.3268
1385.578915 99.332 155.0770
1395.619391 99.281 154.8504
1405.732624 99.226 154.6475
1415.919142 99.166 154.4688
1426.179476 99.102 154.3148
1436.514160 99.035 154.1863
1446.923734 98.965 154.0839
1457.408740 98.893 154.0084
1467.969724 98.820 153.9608
1478.607238 98.746 153.9430
1489.321836 98.673 153.9575
1500.114076 98.601 154.0083
1510.984521 98.531 154.0997
1521.933737 98.463 154.2360
1532.962297 98.399 154.4207
1544.070773 98.339 154.6553
1555.259747 98.284 154.9398
1566.529800 98.234 155.2720
1577.881521 98.191 155.6476
1589.315501 98.154 156.0610
1600.832336 98.122 156.5058
1612.432627 98.096 156.9763
1624.116978 98.074 157.4683
1635.886000 98.057 157.9790
1647.740304 98.044 158.5075
1659.680509 98.035 159.0548
1671.707238 98.030 159.6234
1683.821118 98.029 160.2162
1696.022780 98.034 160.8355
1708.312860 98.046 161.4820
1720.692000 98.065 162.1539
1733.160843 98.094 162.8464
1745.720041 98.132 163.5516
1758.370248 98.181 164.2595
1771.112124 98.239 164.9586
1783.946332 98.307 165.6384
1796.873543 98.382 166.2903
1809.894429 98.464 166.9085
1823.009670 98.551 167.4889
1836.219950 98.643 168.0280
1849.525956 98.738 168.5215
1862.928384 98.835 168.9652
1876.427931 98.935 169.3553
1890.025301 99.035 169.6904
1903.721204 99.135 169.9716
1917.516352 99.233 170.2031
1931.411466 99.329 170.3904
1945.407270 99.422 170.5401
1959.504493 99.511 170.6590
1973.703870 99.596 170.7525
1988.006142 99.677 170.8239
2002.412054 99.753 170.8735
2016.922357 99.823 170.8989
2031.537808 99.888 170.8957
2046.259169 99.946 170.8599
2061.087206 99.995 170.7883
2076.022694 100.036 170.6808
2091.066410 100.067 170.5394
2106.219139 100.089 170.3680
2121.481671 100.102 170.1707
2136.854802 100.108 169.9500
2152.339333 100.109 169.7066
2167.936071 100.105 169.4394
2183.645829 100.099 169.1457
2199.469427 100.092 168.8219
2215.407689 100.084 168.4649
2231.461446 100.077 168.0715
2247.631536 100.071 167.6398
2263.918800 100.064 167.1682
2280.324089 100.057 166.6564
2296.848258 100.049 166.1047
2313.492167 100.039 165.5143
2330.256685 100.026 164.8875
2347.142685 100.008 164.2278
2364.151049 99.984 163.5410
2381.282662 99.953 162.8340
2398.538418 99.915 162.1147
2415.919216 99.869 161.3904
2433.425962 99.815 160.6675
2451.059570 99.755 159.9506
2468.820958 99.689 159.2429
2486.711052 99.616 158.5471
2504.730786 99.539 157.8653
2522.881098 99.457 157.1993
2541.162934 99.372 156.5507
2559.577248 99.284 155.9203
2578.125000 99.194 155.3089
2596.807157 99.103 154.7163
2615.624692 99.012 154.1429
2634.578586 98.921 153.5891
2653.669829 98.831 153.0566
2672.899414 98.742 152.5479
2692.268345 98.655 152.0674
2711.777632 98.568 151.6210
2731.428290 98.482 151.2159
2751.221345 98.397 150.8607
2771.157829 98.310 150.5647
2791.238781 98.223 150.3377
2811.465248 98.134 150.1898
2831.838284 98.043 150.1307
2852.358952 97.949 150.1691
2873.028321 97.852 150.3126
2893.847468 97.751 150.5673
2914.817480 97.647 150.9380
2935.939449 97.540 151.4279
2957.214476 97.429 152.0391
2978.643672 97.316 152.7729
3000.228152 97.201 153.6299
3021.969041 97.086 154.6093
3043.867475 96.971 155.7087
3065.924593 96.861 156.9226
3088.141547 96.756 158.2419
3110.519493 96.661 159.6533
3133.059600 96.577 161.1390
3155.763041 96.508 162.6776
3178.631001 96.455 164.2444
3201.664672 96.420 165.8126
3224.865254 96.405 167.3556
3248.233957 96.409 168.8475
3271.771999 96.430 170.2654
3295.480608 96.469 171.5905
3319.361019 96.523 172.8087
3343.414477 96.589 173.9110
3367.642236 96.664 174.8929
3392.045560 96.748 175.7546
3416.625721 96.836 176.4996
3441.383999 96.927 177.1343
3466.321686 97.020 177.6669
3491.440082 97.114 178.1061
3516.740496 97.208 178.4607
3542.224247 97.300 178.7385
3567.892664 97.392 178.9473
3593.747085 97.482 179.0947
3619.788858 97.570 179.1887
3646.019340 97.656 179.2377
3672.439900 97.740 179.2510
3699.051913 97.821 179.2379
3725.856768 97.899 179.2081
3752.855862 97.974 179.1711
3780.050603 98.048 179.1355
3807.442408 98.120 179.1087
3835.032705 98.191 179.0962
3862.822933 98.262 179.1011
3890.814540 98.333 179.1247
3919.008986 98.405 179.1664
3947.407741 98.477 179.2244
3976.012284 98.551 179.2964
4004.824108 98.624 179.3804
4033.844715 98.698 179.4748
4063.075616 98.771 179.5787
4092.518337 98.843 179.6923
4122.174412 98.913 179.8162
4152.045387 98.983 179.9512
4182.132820 99.051 -179.9013
4212.438278 99.118 -179.7400
4242.963342 99.184 -179.5637
4273.709604 99.250 -179.3715
4304.678665 99.315 -179.1631
4335.872141 99.380 -178.9390
4367.291658 99.446 -178.7007
4398.938854 99.512 -178.4511
4430.815378 99.580 -178.1944
4462.922893 99.649 -177.9362
4495.263072 99.719 -177.6831
4527.837601 99.791 -177.4434
4560.648179 99.864 -177.2259
4593.696515 99.938 -177.0405
4626.984334 100.013 -176.8972
4660.513370 100.088 -176.8062
4694.285371 100.164 -176.7774
4728.302098 100.239 -176.8201
4762.565324 100.314 -176.9426
4797.076835 100.388 -177.1520
4831.838432 100.460 -177.4538
4866.851925 100.530 -177.8519
4902.119140 100.595 -178.3482
4937.641916 100.656 -178.9429
4973.422105 100.710 -179.6335
5009.461572 100.755 179.5842
5045.762195 100.790 178.7175
5082.325868 100.813 177.7757
5119.154496 100.821 176.7710
5156.250000 100.813 175.7178
5193.614313 100.788 174.6327
5231.249383 100.743 173.5344
5269.157173 100.678 172.4429
5307.339658 100.593 171.3794
5345.798829 100.486 170.3656
5384.536691 100.358 169.4231
5423.555263 100.211 168.5728
5462.856580 100.046 167.8341
5502.442691 99.864 167.2249
5542.315659 99.669 166.7606
5582.477563 99.463 166.4545
5622.930497 99.251 166.3168
5663.676569 99.035 166.3553
5704.717904 98.820 166.5753
5746.056642 98.612 166.9797
5787.694937 98.414 167.5692
5829.634960 98.232 168.3426
5871.878898 98.071 169.2963
5914.428953 97.936 170.4244
5957.287343 97.831 171.7171
6000.456303 97.761 173.1605
6043.938083 97.729 174.7346
6087.734950 97.739 176.4131
6131.849187 97.790 178.1621
6176.283094 97.883 179.9410
6221.038987 98.018 -178.2963
6266.119200 98.190 -176.5985
6311.526083 98.397 -175.0143
6357.262002 98.634 -173.5892
6403.329344 98.896 -172.3635
6449.730508 99.179 -171.3704
6496.467914 99.477 -170.6359
6543.543998 99.786 -170.1785
6590.961215 100.102 -170.0108
6638.722037 100.420 -170.1403
6686.828954 100.739 -170.5706
6735.284473 101.052 -171.3024
6784.091120 101.358 -172.3335
6833.251441 101.652 -173.6591
6882.767998 101.930 -175.2717
6932.643372 102.188 -177.1601
6982.880164 102.421 -179.3098
7033.480992 102.625 178.2980
7084.448495 102.795 175.6859
7135.785329 102.927 172.8806
7187.494171 103.018 169.9120
7239.577717 103.064 166.8136
7292.038681 103.062 163.6211
7344.879799 103.010 160.3724
7398.103826 102.907 157.1069
7451.713536 102.751 153.8642
7505.711724 102.544 150.6836
7560.101205 102.284 147.6029
7614.884815 101.975 144.6561
7670.065409 101.618 141.8723
7725.645865 101.217 139.2728
7781.629080 100.776 136.8699
7838.017972 100.300 134.6653
7894.815481 99.794 132.6506
7952.024569 99.261 130.8077
8009.648217 98.705 129.1124
8067.689429 98.128 127.5374
8126.151233 97.531 126.0574
8185.036674 96.914 124.6540
8244.348824 96.276 123.3193
8304.090774 95.614 122.0612
8364.265639 94.925 120.9059
8424.876556 94.207 119.9031
8485.926684 93.459 119.1324
8547.419207 92.683 118.7152
8609.357330 91.886 118.8403
8671.744282 91.080 119.8183
8734.583316 90.288 122.2030
8797.877707 89.545 127.0764
8861.630756 88.901 136.7068
8925.845785 88.414 155.4163
8990.526143 88.139 -174.8838
9055.675202 88.112 -147.4492
9121.296357 88.327 -131.5693
9187.393031 88.747 -123.4506
9253.968668 89.314 -119.3441
9321.026740 89.972 -117.4268
9388.570742 90.673 -116.8449
9456.604196 91.384 -117.1764
9525.130648 92.079 -118.1999
9594.153671 92.742 -119.7929
9663.676863 93.362 -121.8831
9733.703850 93.929 -124.4228
9804.238280 94.437 -127.3753
9875.283832 94.878 -130.7063
9946.844210 95.247 -134.3792
10018.923143 95.540 -138.3523
10091.524390 95.751 -142.5779
10164.651736 95.879 -147.0017
10238.308993 95.922 -151.5653
10312.500000 95.880 -156.2074
10387.228626 95.753 -160.8664
10462.498767 95.544 -165.4826
10538.314345 95.256 -169.9993
10614.679315 94.892 -174.3637
10691.597657 94.456 -178.5257
10769.073381 93.952 177.5627
10847.110526 93.384 173.9489
10925.713161 92.755 170.6817
11004.885382 92.069 167.8122
11084.631318 91.329 165.3950
11164.955126 90.539 163.4885
11245.860993 89.704 162.1543
11327.353138 88.828 161.4544
11409.435808 87.918 161.4468
11492.113283 86.981 162.1770
11575.389873 86.026 163.6655
11659.269920 85.064 165.8931
11743.757796 84.107 168.7858
11828.857906 83.172 172.2062
11914.574686 82.278 175.9580
12000.912606 81.447 179.8047
12087.876166 80.704 -176.5009
12175.469900 80.075 -173.1875
12263.698373 79.584 -170.4458
12352.566187 79.250 -168.4219
12442.077974 79.082 -167.2214
12532.238400 79.076 -166.9195
12623.052165 79.219 -167.5719
12714.524005 79.490 -169.2256
12806.658687 79.863 -171.9261
12899.461015 80.314 -175.7200
12992.935827 80.819 179.3466
13087.087996 81.357 173.2362
13181.922430 81.912 165.9343
13277.444074 82.468 157.4699
13373.657907 83.014 147.9376
13470.568945 83.540 137.5134
13568.182241 84.036 126.4521
13666.502883 84.494 115.0569
13765.535996 84.906 103.6313
13865.286744 85.265 92.4312
13965.760328 85.565 81.6405
14066.961984 85.803 71.3720
14168.896989 85.978 61.6827
14271.570658 86.091 52.5932
14374.988342 86.150 44.0988
14479.155433 86.163 36.1766
14584.077362 86.143 28.7881
14689.759598 86.099 21.8824
14796.207652 86.043 15.4012
14903.427072 85.981 9.2850
15011.423448 85.918 3.4775
15120.202410 85.857 -2.0706
15229.769630 85.797 -7.4024
15340.130819 85.740 -12.5559
15451.291730 85.686 -17.5669
15563.258160 85.635 -22.4722
15676.035944 85.585 -27.3104
15789.630962 85.537 -32.1217
15904.049137 85.484 -36.9449
16019.296433 85.421 -41.8126
16135.378859 85.341 -46.7474
16252.302465 85.233 -51.7592
16370.073348 85.090 -56.8436
16488.697648 84.905 -61.9846
16608.181548 84.670 -67.1571
16728.531278 84.385 -72.3306
16849.753112 84.047 -77.4747
16971.853368 83.659 -82.5625
17094.838414 83.224 -87.5739
17218.714660 82.748 -92.4972
17343.488565 82.238 -97.3293
17469.166632 81.701 -102.0756
17595.755415 81.149 -106.7485
17723.261512 80.590 -111.3671
17851.691571 80.040 -115.9584
17981.052287 79.512 -120.5591
18111.350404 79.024 -125.2206
18242.592715 78.595 -130.0137
18374.786062 78.240 -135.0304
18507.937336 77.966 -140.3795
18642.053479 77.772 -146.1736
18777.141484 77.641 -152.5086
18913.208391 77.551 -159.4384
19050.261296 77.474 -166.9467
19188.307342 77.386 -174.9185
19327.353727 77.272 176.8866
19467.407699 77.131 168.8481
19608.476560 76.971 161.4635
19750.567664 76.815 155.2870
19893.688419 76.689 150.8373
20037.846286 76.619 148.5079
