* Measurement data measured by REW V5.31.3
* Source: EXCL: Headset (USB-C to 3.5mm Headphone Jack Adapter), MICROPHONE (Master Volume), 0, volume: 0.250
* Format: 256k Log Swept Sine, 1 sweep at -12.0 dBFS with no timing reference
* Dated: Feb 9, 2025 6:18:11 PM
* REW Settings:
*  C-weighting compensation: Off
*  Target level: 75.0 dB
* Note: ; 
* Measurement: Satyr 2 (Geekria) L6
* Smoothing: 1/6 octave
* Frequency Step: 96 ppo
* Start Frequency: 20.0 Hz
*
* Freq(Hz) SPL(dB) Phase(degrees)
20.141602 91.028 -27.1565
20.287556 91.052 -27.3950
20.434568 91.083 -27.7164
20.582645 91.116 -28.1145
20.731796 91.151 -28.5824
20.882027 91.183 -29.1130
21.033346 91.210 -29.6989
21.185763 91.231 -30.3327
21.339284 91.245 -31.0067
21.493917 91.251 -31.7132
21.649671 91.249 -32.4442
21.806553 91.241 -33.1918
21.964572 91.226 -33.9482
22.123737 91.207 -34.7060
22.284054 91.185 -35.4587
22.445534 91.161 -36.2009
22.608183 91.137 -36.9284
22.772012 91.116 -37.6388
22.937027 91.098 -38.3311
23.103238 91.086 -39.0061
23.270654 91.080 -39.6660
23.439282 91.082 -40.3139
23.609133 91.093 -40.9536
23.780215 91.113 -41.5893
23.952536 91.144 -42.2245
24.126106 91.186 -42.8623
24.300934 91.238 -43.5043
24.477028 91.300 -44.1511
24.654399 91.371 -44.8021
24.833055 91.450 -45.4553
25.013005 91.535 -46.1080
25.194260 91.626 -46.7572
25.376828 91.721 -47.3998
25.560719 91.818 -48.0334
25.745942 91.916 -48.6565
25.932508 92.014 -49.2690
26.120426 92.110 -49.8721
26.309705 92.204 -50.4682
26.500356 92.295 -51.0608
26.692388 92.381 -51.6540
26.885812 92.462 -52.2518
27.080638 92.538 -52.8578
27.276876 92.609 -53.4744
27.474535 92.675 -54.1027
27.673627 92.737 -54.7420
27.874161 92.797 -55.3902
28.076149 92.857 -56.0435
28.279600 92.921 -56.6972
28.484526 92.991 -57.3464
28.690937 93.072 -57.9859
28.898843 93.165 -58.6114
29.108256 93.275 -59.2198
29.319186 93.402 -59.8095
29.531645 93.548 -60.3804
29.745644 93.710 -60.9339
29.961193 93.886 -61.4728
30.178304 94.072 -62.0009
30.396989 94.264 -62.5226
30.617258 94.457 -63.0430
30.839123 94.644 -63.5669
31.062596 94.821 -64.0996
31.287688 94.984 -64.6458
31.514412 95.127 -65.2100
31.742778 95.247 -65.7958
31.972800 95.342 -66.4057
32.204488 95.410 -67.0409
32.437855 95.449 -67.7006
32.672913 95.461 -68.3822
32.909674 95.445 -69.0811
33.148151 95.403 -69.7913
33.388356 95.337 -70.5056
33.630302 95.251 -71.2163
33.874001 95.148 -71.9166
34.119466 95.032 -72.6007
34.366710 94.909 -73.2648
34.615745 94.782 -73.9076
34.866585 94.656 -74.5302
35.119243 94.536 -75.1358
35.373731 94.427 -75.7295
35.630064 94.331 -76.3173
35.888254 94.251 -76.9055
36.148315 94.190 -77.4995
36.410261 94.148 -78.1035
36.674104 94.127 -78.7196
36.939860 94.127 -79.3481
37.207542 94.147 -79.9877
37.477163 94.188 -80.6356
37.748738 94.247 -81.2888
38.022281 94.326 -81.9445
38.297806 94.424 -82.6004
38.575327 94.540 -83.2553
38.854860 94.674 -83.9090
39.136419 94.825 -84.5617
39.420017 94.992 -85.2142
39.705671 95.175 -85.8668
39.993395 95.373 -86.5198
40.283203 95.585 -87.1732
40.575112 95.810 -87.8266
40.869136 96.045 -88.4800
41.165290 96.291 -89.1334
41.463591 96.545 -89.7873
41.764053 96.805 -90.4421
42.066693 97.069 -91.0984
42.371525 97.334 -91.7561
42.678567 97.598 -92.4150
42.987834 97.859 -93.0742
43.299341 98.115 -93.7322
43.613106 98.362 -94.3877
43.929145 98.601 -95.0390
44.247473 98.828 -95.6850
44.568109 99.043 -96.3252
44.891068 99.244 -96.9598
45.216367 99.430 -97.5896
45.544023 99.602 -98.2159
45.874054 99.757 -98.8404
46.206476 99.895 -99.4644
46.541307 100.016 -100.0889
46.878565 100.119 -100.7142
47.218266 100.205 -101.3401
47.560429 100.274 -101.9661
47.905072 100.326 -102.5913
48.252212 100.363 -103.2146
48.601867 100.387 -103.8351
48.954056 100.397 -104.4524
49.308798 100.397 -105.0658
49.666109 100.388 -105.6756
50.026010 100.372 -106.2821
50.388520 100.351 -106.8860
50.753656 100.327 -107.4882
51.121437 100.302 -108.0896
51.491884 100.277 -108.6910
51.865016 100.254 -109.2929
52.240851 100.233 -109.8954
52.619410 100.215 -110.4983
53.000712 100.201 -111.1012
53.384777 100.191 -111.7034
53.771625 100.184 -112.3044
54.161276 100.179 -112.9035
54.553751 100.176 -113.5005
54.949070 100.173 -114.0950
55.347254 100.171 -114.6872
55.748323 100.167 -115.2774
56.152298 100.161 -115.8660
56.559201 100.152 -116.4533
56.969052 100.141 -117.0395
57.381873 100.126 -117.6245
57.797686 100.108 -118.2082
58.216512 100.086 -118.7903
58.638373 100.062 -119.3702
59.063291 100.036 -119.9475
59.491288 100.007 -120.5215
59.922386 99.977 -121.0918
60.356608 99.946 -121.6577
60.793977 99.914 -122.2188
61.234515 99.881 -122.7749
61.678246 99.848 -123.3258
62.125192 99.816 -123.8718
62.575377 99.783 -124.4134
63.028824 99.752 -124.9512
63.485557 99.721 -125.4861
63.945599 99.691 -126.0190
64.408975 99.663 -126.5508
64.875709 99.637 -127.0824
65.345825 99.614 -127.6146
65.819348 99.592 -128.1481
66.296302 99.574 -128.6833
66.776713 99.558 -129.2200
67.260604 99.544 -129.7579
67.748002 99.533 -130.2963
68.238932 99.525 -130.8341
68.733420 99.518 -131.3703
69.231490 99.514 -131.9039
69.733170 99.511 -132.4341
70.238485 99.510 -132.9605
70.747463 99.510 -133.4825
71.260128 99.511 -134.0000
71.776508 99.513 -134.5124
72.296630 99.516 -135.0192
72.820521 99.520 -135.5195
73.348209 99.524 -136.0123
73.879720 99.528 -136.4970
74.415083 99.533 -136.9729
74.954326 99.539 -137.4403
75.497475 99.544 -137.8995
76.044561 99.550 -138.3517
76.595612 99.555 -138.7979
77.150655 99.559 -139.2394
77.709720 99.561 -139.6769
78.272837 99.562 -140.1113
78.840034 99.561 -140.5429
79.411342 99.557 -140.9719
79.986789 99.550 -141.3983
80.566406 99.540 -141.8221
81.150224 99.527 -142.2429
81.738272 99.512 -142.6606
82.330581 99.494 -143.0747
82.927182 99.475 -143.4852
83.528107 99.456 -143.8919
84.133386 99.440 -144.2949
84.743051 99.427 -144.6947
85.357134 99.422 -145.0917
85.975667 99.427 -145.4865
86.598682 99.445 -145.8795
87.226212 99.481 -146.2715
87.858289 99.536 -146.6627
88.494946 99.614 -147.0536
89.136217 99.717 -147.4448
89.782135 99.843 -147.8364
90.432733 99.994 -148.2287
91.088046 100.165 -148.6218
91.748108 100.354 -149.0157
92.412952 100.556 -149.4106
93.082615 100.765 -149.8064
93.757130 100.976 -150.2030
94.436533 101.183 -150.6004
95.120859 101.381 -150.9986
95.810144 101.568 -151.3973
96.504423 101.739 -151.7967
97.203734 101.892 -152.1966
97.908112 102.028 -152.5969
98.617595 102.147 -152.9975
99.332219 102.248 -153.3984
100.052021 102.335 -153.7997
100.777039 102.409 -154.2018
101.507311 102.473 -154.6048
102.242875 102.527 -155.0089
102.983769 102.575 -155.4144
103.730032 102.618 -155.8212
104.481702 102.655 -156.2293
105.238820 102.686 -156.6391
106.001424 102.712 -157.0506
106.769554 102.731 -157.4643
107.543250 102.740 -157.8802
108.322553 102.739 -158.2984
109.107503 102.726 -158.7182
109.898141 102.699 -159.1389
110.694508 102.659 -159.5597
111.496646 102.604 -159.9797
112.304596 102.535 -160.3983
113.118402 102.454 -160.8151
113.938104 102.362 -161.2296
114.763747 102.262 -161.6415
115.595372 102.154 -162.0506
116.433024 102.043 -162.4563
117.276746 101.929 -162.8584
118.126581 101.815 -163.2563
118.982575 101.702 -163.6494
119.844772 101.591 -164.0372
120.713217 101.482 -164.4191
121.587954 101.376 -164.7944
122.469031 101.271 -165.1628
123.356492 101.167 -165.5237
124.250384 101.062 -165.8766
125.150753 100.955 -166.2210
126.057647 100.844 -166.5562
126.971113 100.729 -166.8819
127.891198 100.608 -167.1978
128.817950 100.480 -167.5040
129.751418 100.347 -167.8010
130.691651 100.208 -168.0896
131.638696 100.064 -168.3710
132.592604 99.918 -168.6467
133.553425 99.771 -168.9184
134.521208 99.627 -169.1879
135.496004 99.489 -169.4572
136.477864 99.361 -169.7284
137.466839 99.246 -170.0036
138.462981 99.146 -170.2849
139.466340 99.066 -170.5746
140.476971 99.005 -170.8745
141.494925 98.964 -171.1865
142.520256 98.942 -171.5119
143.553016 98.937 -171.8513
144.593260 98.945 -172.2050
145.641043 98.961 -172.5724
146.696418 98.982 -172.9528
147.759441 99.004 -173.3447
148.830166 99.021 -173.7465
149.908651 99.032 -174.1566
150.994951 99.034 -174.5732
152.089123 99.027 -174.9945
153.191223 99.009 -175.4189
154.301310 98.982 -175.8445
155.419441 98.947 -176.2696
156.545674 98.905 -176.6927
157.680069 98.859 -177.1119
158.822683 98.810 -177.5258
159.973578 98.760 -177.9328
161.132813 98.709 -178.3315
162.300447 98.659 -178.7207
163.476543 98.611 -179.0994
164.661162 98.565 -179.4669
165.854364 98.520 -179.8224
167.056213 98.478 179.8346
168.266772 98.438 179.5047
169.486102 98.401 179.1888
170.714268 98.367 178.8876
171.951334 98.337 178.6017
173.197364 98.310 178.3317
174.452424 98.287 178.0783
175.716578 98.269 177.8417
176.989893 98.253 177.6221
178.272434 98.240 177.4196
179.564270 98.230 177.2339
180.865467 98.219 177.0648
182.176092 98.209 176.9118
183.496216 98.198 176.7746
184.825905 98.185 176.6528
186.165229 98.169 176.5460
187.514259 98.152 176.4537
188.873065 98.133 176.3757
190.241717 98.113 176.3114
191.620287 98.092 176.2602
193.008847 98.071 176.2213
194.407468 98.051 176.1937
195.816225 98.033 176.1761
197.235190 98.016 176.1675
198.664438 98.002 176.1668
200.104042 97.989 176.1730
201.554078 97.977 176.1855
203.014622 97.967 176.2034
204.485750 97.956 176.2252
205.967538 97.946 176.2488
207.460064 97.935 176.2722
208.963405 97.923 176.2930
210.477640 97.909 176.3090
212.002848 97.895 176.3185
213.539108 97.880 176.3201
215.086500 97.864 176.3128
216.645105 97.847 176.2958
218.215005 97.829 176.2687
219.796281 97.810 176.2312
221.389015 97.789 176.1834
222.993292 97.766 176.1258
224.609193 97.739 176.0594
226.236804 97.709 175.9857
227.876209 97.674 175.9062
229.527494 97.633 175.8231
231.190745 97.586 175.7381
232.866048 97.534 175.6531
234.553491 97.477 175.5698
236.253163 97.414 175.4894
237.965150 97.348 175.4127
239.689544 97.278 175.3401
241.426433 97.206 175.2715
243.175909 97.133 175.2065
244.938062 97.060 175.1440
246.712984 96.987 175.0829
248.500768 96.917 175.0220
250.301507 96.850 174.9601
252.115295 96.787 174.8958
253.942226 96.728 174.8278
255.782396 96.674 174.7551
257.635901 96.625 174.6768
259.502837 96.583 174.5922
261.383301 96.547 174.5011
263.277392 96.518 174.4033
265.185209 96.495 174.2992
267.106850 96.478 174.1893
269.042417 96.468 174.0744
270.992009 96.463 173.9551
272.955729 96.463 173.8322
274.933678 96.467 173.7057
276.925961 96.474 173.5760
278.932681 96.483 173.4430
280.953942 96.494 173.3066
282.989850 96.507 173.1674
285.040511 96.521 173.0257
287.106032 96.537 172.8823
289.186521 96.555 172.7379
291.282086 96.576 172.5932
293.392836 96.601 172.4487
295.518881 96.630 172.3050
297.660333 96.664 172.1627
299.817302 96.703 172.0224
301.989902 96.746 171.8851
304.178245 96.792 171.7514
306.382446 96.839 171.6224
308.602620 96.885 171.4987
310.838882 96.930 171.3812
313.091348 96.971 171.2705
315.360137 97.007 171.1674
317.645367 97.036 171.0724
319.947156 97.058 170.9858
322.265625 97.071 170.9078
324.600895 97.075 170.8383
326.953086 97.069 170.7772
329.322323 97.053 170.7242
331.708729 97.027 170.6791
334.112427 96.991 170.6416
336.533543 96.945 170.6111
338.972204 96.889 170.5870
341.428536 96.824 170.5686
343.902668 96.752 170.5553
346.394729 96.673 170.5463
348.904848 96.589 170.5410
351.433156 96.502 170.5388
353.979786 96.415 170.5389
356.544869 96.329 170.5407
359.128540 96.247 170.5432
361.730934 96.173 170.5457
364.352185 96.109 170.5473
366.992431 96.059 170.5473
369.651810 96.023 170.5451
372.330459 96.005 170.5403
375.028519 96.005 170.5327
377.746130 96.024 170.5220
380.483434 96.061 170.5082
383.240574 96.113 170.4911
386.017693 96.180 170.4707
388.814937 96.258 170.4471
391.632450 96.345 170.4208
394.470380 96.437 170.3919
397.328875 96.532 170.3610
400.208084 96.627 170.3288
403.108157 96.721 170.2957
406.029245 96.813 170.2620
408.971500 96.901 170.2277
411.935076 96.986 170.1927
414.920127 97.068 170.1564
417.926810 97.147 170.1183
420.955280 97.224 170.0777
424.005695 97.299 170.0341
427.078215 97.373 169.9869
430.173000 97.447 169.9359
433.290211 97.520 169.8809
436.430010 97.592 169.8220
439.592562 97.663 169.7596
442.778031 97.731 169.6945
445.986583 97.794 169.6276
449.218386 97.852 169.5605
452.473607 97.902 169.4955
455.752418 97.943 169.4351
459.054987 97.973 169.3826
462.381489 97.992 169.3419
465.732096 97.998 169.3166
469.106983 97.993 169.3107
472.506325 97.977 169.3272
475.930301 97.950 169.3686
479.379088 97.915 169.4357
482.852867 97.873 169.5282
486.351817 97.826 169.6439
489.876123 97.776 169.7794
493.425968 97.724 169.9300
497.001536 97.671 170.0904
500.603014 97.618 170.2551
504.230589 97.565 170.4189
507.884452 97.512 170.5772
511.564792 97.459 170.7266
515.271802 97.406 170.8647
519.005673 97.352 170.9904
522.766602 97.298 171.1035
526.554785 97.244 171.2044
530.370418 97.193 171.2943
534.213700 97.145 171.3745
538.084833 97.102 171.4464
541.984018 97.065 171.5116
545.911457 97.036 171.5717
549.867357 97.015 171.6283
553.851922 97.003 171.6827
557.865362 96.999 171.7365
561.907884 97.002 171.7908
565.979700 97.010 171.8466
570.081022 97.022 171.9048
574.212064 97.034 171.9665
578.373042 97.046 172.0322
582.564171 97.056 172.1027
586.785671 97.062 172.1783
591.037762 97.063 172.2590
595.320665 97.058 172.3447
599.634604 97.047 172.4351
603.979804 97.029 172.5294
608.356491 97.005 172.6269
612.764893 96.975 172.7268
617.205240 96.941 172.8286
621.677763 96.902 172.9314
626.182696 96.861 173.0350
630.720274 96.820 173.1389
635.290733 96.780 173.2425
639.894312 96.743 173.3452
644.531250 96.710 173.4465
649.201789 96.685 173.5456
653.906173 96.667 173.6416
658.644647 96.657 173.7339
663.417457 96.655 173.8215
668.224854 96.660 173.9038
673.067086 96.672 173.9802
677.944408 96.689 174.0499
682.857073 96.709 174.1125
687.805336 96.730 174.1675
692.789457 96.751 174.2145
697.809695 96.770 174.2532
702.866312 96.786 174.2836
707.959571 96.797 174.3055
713.089738 96.804 174.3197
718.257080 96.805 174.3268
723.461867 96.800 174.3284
728.704370 96.791 174.3259
733.984862 96.776 174.3215
739.303619 96.757 174.3171
744.660918 96.734 174.3150
750.057038 96.709 174.3173
755.492260 96.681 174.3257
760.966869 96.651 174.3417
766.481148 96.620 174.3663
772.035387 96.588 174.4003
777.629873 96.553 174.4438
783.264900 96.517 174.4965
788.940760 96.479 174.5575
794.657750 96.437 174.6254
800.416168 96.391 174.6984
806.216313 96.342 174.7740
812.058489 96.288 174.8499
817.943000 96.228 174.9238
823.870152 96.164 174.9937
829.840255 96.095 175.0581
835.853619 96.022 175.1164
841.910559 95.944 175.1689
848.011390 95.864 175.2166
854.156430 95.781 175.2609
860.346000 95.698 175.3032
866.580422 95.615 175.3448
872.860020 95.533 175.3858
879.185124 95.455 175.4262
885.556062 95.381 175.4650
891.973166 95.313 175.5011
898.436771 95.253 175.5326
904.947215 95.201 175.5574
911.504835 95.158 175.5734
918.109975 95.125 175.5780
924.762978 95.102 175.5693
931.464192 95.091 175.5459
938.213966 95.089 175.5071
945.012651 95.098 175.4529
951.860602 95.115 175.3843
958.758176 95.140 175.3030
965.705733 95.172 175.2114
972.703635 95.209 175.1122
979.752246 95.252 175.0077
986.851935 95.298 174.9000
994.003071 95.349 174.7901
1001.206027 95.404 174.6780
1008.461179 95.462 174.5632
1015.768904 95.525 174.4453
1023.129584 95.591 174.3238
1030.543603 95.663 174.1986
1038.011347 95.740 174.0701
1045.533205 95.823 173.9391
1053.109569 95.912 173.8068
1060.740836 96.007 173.6749
1068.427401 96.108 173.5454
1076.169666 96.215 173.4207
1083.968035 96.326 173.3022
1091.822915 96.442 173.1911
1099.734713 96.560 173.0870
1107.703844 96.679 172.9880
1115.730723 96.798 172.8905
1123.815768 96.916 172.7897
1131.959400 97.031 172.6798
1140.162045 97.142 172.5552
1148.424129 97.247 172.4110
1156.746083 97.347 172.2436
1165.128342 97.441 172.0510
1173.571343 97.528 171.8327
1182.075524 97.610 171.5897
1190.641331 97.686 171.3240
1199.269209 97.758 171.0382
1207.959608 97.826 170.7352
1216.712981 97.891 170.4183
1225.529785 97.951 170.0911
1234.410479 98.007 169.7577
1243.355526 98.059 169.4225
1252.365393 98.106 169.0897
1261.440549 98.148 168.7628
1270.581467 98.184 168.4445
1279.788624 98.214 168.1366
1289.062500 98.238 167.8406
1298.403578 98.255 167.5579
1307.812346 98.266 167.2903
1317.289293 98.271 167.0398
1326.834914 98.269 166.8087
1336.449707 98.263 166.5992
1346.134173 98.252 166.4136
1355.888816 98.237 166.2531
1365.714145 98.220 166.1183
1375.610673 98.199 166.0084
1385.578915 98.177 165.9215
1395.619391 98.153 165.8556
1405.732624 98.128 165.8082
1415.919142 98.102 165.7773
1426.179476 98.075 165.7612
1436.514160 98.048 165.7582
1446.923734 98.021 165.7665
1457.408740 97.995 165.7839
1467.969724 97.971 165.8079
1478.607238 97.950 165.8363
1489.321836 97.930 165.8684
1500.114076 97.913 165.9051
1510.984521 97.899 165.9491
1521.933737 97.886 166.0049
1532.962297 97.875 166.0777
1544.070773 97.867 166.1716
1555.259747 97.861 166.2892
1566.529800 97.858 166.4316
1577.881521 97.858 166.5985
1589.315501 97.860 166.7887
1600.832336 97.864 167.0008
1612.432627 97.870 167.2330
1624.116978 97.878 167.4836
1635.886000 97.888 167.7515
1647.740304 97.899 168.0363
1659.680509 97.912 168.3390
1671.707238 97.928 168.6614
1683.821118 97.946 169.0054
1696.022780 97.969 169.3717
1708.312860 97.996 169.7589
1720.692000 98.030 170.1628
1733.160843 98.070 170.5766
1745.720041 98.118 170.9919
1758.370248 98.171 171.4004
1771.112124 98.231 171.7955
1783.946332 98.294 172.1735
1796.873543 98.360 172.5334
1809.894429 98.428 172.8762
1823.009670 98.497 173.2039
1836.219950 98.566 173.5187
1849.525956 98.636 173.8230
1862.928384 98.707 174.1180
1876.427931 98.779 174.4034
1890.025301 98.853 174.6766
1903.721204 98.929 174.9340
1917.516352 99.007 175.1720
1931.411466 99.086 175.3882
1945.407270 99.167 175.5811
1959.504493 99.247 175.7490
1973.703870 99.326 175.8906
1988.006142 99.403 176.0043
2002.412054 99.476 176.0892
2016.922357 99.545 176.1450
2031.537808 99.608 176.1710
2046.259169 99.665 176.1669
2061.087206 99.714 176.1320
2076.022694 99.755 176.0658
2091.066410 99.788 175.9686
2106.219139 99.813 175.8409
2121.481671 99.832 175.6835
2136.854802 99.843 175.4976
2152.339333 99.849 175.2842
2167.936071 99.851 175.0443
2183.645829 99.850 174.7780
2199.469427 99.847 174.4851
2215.407689 99.843 174.1646
2231.461446 99.840 173.8154
2247.631536 99.836 173.4372
2263.918800 99.832 173.0303
2280.324089 99.828 172.5962
2296.848258 99.824 172.1374
2313.492167 99.818 171.6566
2330.256685 99.811 171.1573
2347.142685 99.801 170.6427
2364.151049 99.789 170.1162
2381.282662 99.773 169.5805
2398.538418 99.755 169.0383
2415.919216 99.733 168.4920
2433.425962 99.708 167.9442
2451.059570 99.680 167.3976
2468.820958 99.649 166.8546
2486.711052 99.617 166.3171
2504.730786 99.583 165.7864
2522.881098 99.548 165.2629
2541.162934 99.514 164.7460
2559.577248 99.482 164.2346
2578.125000 99.452 163.7267
2596.807157 99.425 163.2205
2615.624692 99.402 162.7138
2634.578586 99.384 162.2053
2653.669829 99.371 161.6940
2672.899414 99.363 161.1797
2692.268345 99.359 160.6634
2711.777632 99.359 160.1476
2731.428290 99.362 159.6365
2751.221345 99.368 159.1353
2771.157829 99.374 158.6505
2791.238781 99.380 158.1888
2811.465248 99.384 157.7568
2831.838284 99.386 157.3599
2852.358952 99.384 157.0024
2873.028321 99.376 156.6876
2893.847468 99.361 156.4175
2914.817480 99.339 156.1944
2935.939449 99.307 156.0205
2957.214476 99.265 155.8991
2978.643672 99.212 155.8344
3000.228152 99.147 155.8317
3021.969041 99.070 155.8971
3043.867475 98.983 156.0371
3065.924593 98.885 156.2579
3088.141547 98.779 156.5650
3110.519493 98.666 156.9631
3133.059600 98.548 157.4553
3155.763041 98.429 158.0423
3178.631001 98.312 158.7227
3201.664672 98.199 159.4918
3224.865254 98.094 160.3413
3248.233957 97.999 161.2596
3271.771999 97.918 162.2318
3295.480608 97.851 163.2406
3319.361019 97.802 164.2671
3343.414477 97.770 165.2917
3367.642236 97.756 166.2952
3392.045560 97.760 167.2594
3416.625721 97.780 168.1685
3441.383999 97.817 169.0088
3466.321686 97.869 169.7692
3491.440082 97.934 170.4414
3516.740496 98.011 171.0192
3542.224247 98.097 171.4989
3567.892664 98.192 171.8792
3593.747085 98.294 172.1605
3619.788858 98.401 172.3455
3646.019340 98.511 172.4380
3672.439900 98.623 172.4439
3699.051913 98.734 172.3698
3725.856768 98.845 172.2238
3752.855862 98.952 172.0152
3780.050603 99.056 171.7540
3807.442408 99.155 171.4507
3835.032705 99.249 171.1159
3862.822933 99.337 170.7598
3890.814540 99.420 170.3915
3919.008986 99.497 170.0187
3947.407741 99.569 169.6477
3976.012284 99.636 169.2827
4004.824108 99.698 168.9261
4033.844715 99.756 168.5790
4063.075616 99.810 168.2415
4092.518337 99.859 167.9127
4122.174412 99.903 167.5917
4152.045387 99.942 167.2780
4182.132820 99.976 166.9716
4212.438278 100.003 166.6740
4242.963342 100.024 166.3878
4273.709604 100.037 166.1174
4304.678665 100.044 165.8683
4335.872141 100.042 165.6472
4367.291658 100.034 165.4611
4398.938854 100.018 165.3163
4430.815378 99.996 165.2184
4462.922893 99.968 165.1710
4495.263072 99.936 165.1757
4527.837601 99.900 165.2319
4560.648179 99.860 165.3376
4593.696515 99.818 165.4887
4626.984334 99.775 165.6801
4660.513370 99.731 165.9058
4694.285371 99.687 166.1590
4728.302098 99.645 166.4321
4762.565324 99.607 166.7172
4797.076835 99.572 167.0059
4831.838432 99.543 167.2893
4866.851925 99.520 167.5585
4902.119140 99.505 167.8043
4937.641916 99.498 168.0173
4973.422105 99.500 168.1880
5009.461572 99.511 168.3073
5045.762195 99.530 168.3659
5082.325868 99.556 168.3558
5119.154496 99.588 168.2702
5156.250000 99.625 168.1040
5193.614313 99.663 167.8547
5231.249383 99.699 167.5226
5269.157173 99.732 167.1114
5307.339658 99.759 166.6275
5345.798829 99.776 166.0811
5384.536691 99.781 165.4851
5423.555263 99.773 164.8552
5462.856580 99.750 164.2093
5502.442691 99.711 163.5667
5542.315659 99.656 162.9476
5582.477563 99.586 162.3724
5622.930497 99.503 161.8611
5663.676569 99.409 161.4329
5704.717904 99.307 161.1058
5746.056642 99.200 160.8959
5787.694937 99.093 160.8170
5829.634960 98.992 160.8793
5871.878898 98.900 161.0883
5914.428953 98.825 161.4431
5957.287343 98.772 161.9354
6000.456303 98.744 162.5488
6043.938083 98.746 163.2582
6087.734950 98.780 164.0313
6131.849187 98.847 164.8301
6176.283094 98.944 165.6131
6221.038987 99.069 166.3385
6266.119200 99.217 166.9670
6311.526083 99.385 167.4640
6357.262002 99.565 167.8015
6403.329344 99.754 167.9588
6449.730508 99.946 167.9222
6496.467914 100.137 167.6842
6543.543998 100.324 167.2422
6590.961215 100.503 166.5970
6638.722037 100.673 165.7520
6686.828954 100.832 164.7114
6735.284473 100.979 163.4807
6784.091120 101.113 162.0655
6833.251441 101.232 160.4721
6882.767998 101.335 158.7073
6932.643372 101.421 156.7785
6982.880164 101.490 154.6940
7033.480992 101.539 152.4627
7084.448495 101.567 150.0945
7135.785329 101.572 147.6004
7187.494171 101.554 144.9920
7239.577717 101.510 142.2819
7292.038681 101.439 139.4828
7344.879799 101.341 136.6068
7398.103826 101.215 133.6642
7451.713536 101.062 130.6626
7505.711724 100.883 127.6045
7560.101205 100.678 124.4865
7614.884815 100.451 121.2978
7670.065409 100.203 118.0197
7725.645865 99.935 114.6247
7781.629080 99.650 111.0774
7838.017972 99.348 107.3341
7894.815481 99.030 103.3444
7952.024569 98.694 99.0500
8009.648217 98.340 94.3839
8067.689429 97.965 89.2665
8126.151233 97.569 83.5978
8185.036674 97.152 77.2451
8244.348824 96.713 70.0246
8304.090774 96.258 61.6774
8364.265639 95.794 51.8510
8424.876556 95.333 40.1160
8485.926684 94.889 26.1100
8547.419207 94.483 9.9170
8609.357330 94.138 -7.4650
8671.744282 93.877 -24.2831
8734.583316 93.722 -39.0597
8797.877707 93.685 -51.2905
8861.630756 93.772 -61.2054
8925.845785 93.975 -69.2824
8990.526143 94.281 -75.9832
9055.675202 94.669 -81.6786
9121.296357 95.121 -86.6520
9187.393031 95.614 -91.1179
9253.968668 96.133 -95.2413
9321.026740 96.662 -99.1513
9388.570742 97.189 -102.9503
9456.604196 97.703 -106.7198
9525.130648 98.195 -110.5248
9594.153671 98.657 -114.4155
9663.676863 99.081 -118.4293
9733.703850 99.460 -122.5908
9804.238280 99.788 -126.9129
9875.283832 100.057 -131.3958
9946.844210 100.262 -136.0270
10018.923143 100.397 -140.7814
10091.524390 100.457 -145.6218
10164.651736 100.439 -150.5001
10238.308993 100.341 -155.3605
10312.500000 100.164 -160.1434
10387.228626 99.911 -164.7903
10462.498767 99.587 -169.2484
10538.314345 99.198 -173.4743
10614.679315 98.751 -177.4375
10691.597657 98.257 178.8792
10769.073381 97.723 175.4788
10847.110526 97.160 172.3511
10925.713161 96.576 169.4733
11004.885382 95.978 166.8129
11084.631318 95.374 164.3292
11164.955126 94.769 161.9775
11245.860993 94.165 159.7118
11327.353138 93.564 157.4878
11409.435808 92.965 155.2661
11492.113283 92.367 153.0127
11575.389873 91.765 150.7000
11659.269920 91.158 148.3048
11743.757796 90.543 145.8055
11828.857906 89.919 143.1782
11914.574686 89.285 140.3923
12000.912606 88.644 137.4058
12087.876166 87.999 134.1620
12175.469900 87.355 130.5867
12263.698373 86.717 126.5863
12352.566187 86.093 122.0449
12442.077974 85.491 116.8225
12532.238400 84.918 110.7518
12623.052165 84.382 103.6389
12714.524005 83.891 95.2759
12806.658687 83.450 85.4828
12899.461015 83.066 74.1966
12992.935827 82.740 61.6089
13087.087996 82.471 48.2619
13181.922430 82.258 34.9633
13277.444074 82.095 22.4973
13373.657907 81.977 11.3585
13470.568945 81.899 1.7031
13568.182241 81.858 -6.5388
13666.502883 81.853 -13.5344
13765.535996 81.884 -19.4695
13865.286744 81.954 -24.5162
13965.760328 82.067 -28.8260
14066.961984 82.228 -32.5348
14168.896989 82.438 -35.7692
14271.570658 82.699 -38.6513
14374.988342 83.007 -41.3010
14479.155433 83.357 -43.8337
14584.077362 83.738 -46.3562
14689.759598 84.140 -48.9607
14796.207652 84.549 -51.7198
14903.427072 84.955 -54.6850
15011.423448 85.346 -57.8873
15120.202410 85.714 -61.3403
15229.769630 86.052 -65.0453
15340.130819 86.353 -68.9948
15451.291730 86.614 -73.1757
15563.258160 86.830 -77.5714
15676.035944 86.997 -82.1628
15789.630962 87.113 -86.9280
15904.049137 87.176 -91.8433
16019.296433 87.185 -96.8832
16135.378859 87.138 -102.0217
16252.302465 87.036 -107.2337
16370.073348 86.880 -112.4966
16488.697648 86.674 -117.7911
16608.181548 86.418 -123.1016
16728.531278 86.117 -128.4153
16849.753112 85.771 -133.7217
16971.853368 85.384 -139.0105
17094.838414 84.957 -144.2703
17218.714660 84.492 -149.4875
17343.488565 83.989 -154.6451
17469.166632 83.450 -159.7245
17595.755415 82.881 -164.7084
17723.261512 82.286 -169.5874
17851.691571 81.676 -174.3680
17981.052287 81.065 -179.0804
18111.350404 80.472 176.2148
18242.592715 79.915 171.4260
18374.786062 79.416 166.4371
18507.937336 78.987 161.1211
18642.053479 78.634 155.3589
18777.141484 78.350 149.0597
18913.208391 78.121 142.1808
19050.261296 77.928 134.7496
19188.307342 77.754 126.8889
19327.353727 77.584 118.8405
19467.407699 77.415 110.9785
19608.476560 77.252 103.7864
19750.567664 77.107 97.7954
19893.688419 76.997 93.4939
20037.846286 76.937 91.2471
