* Measurement data measured by REW V5.31.3
* Source: EXCL: Headset (USB-C to 3.5mm Headphone Jack Adapter), MICROPHONE (Master Volume), 0, volume: 0.260
* Format: 256k Log Swept Sine, 1 sweep at -12.0 dBFS with no timing reference
* Dated: Feb 9, 2025 9:35:53 PM
* REW Settings:
*  C-weighting compensation: Off
*  Target level: 75.0 dB
* Note: ; 
* Measurement: HD650 (Worn) L7
* Smoothing: 1/6 octave
* Frequency Step: 96 ppo
* Start Frequency: 20.0 Hz
*
* Freq(Hz) SPL(dB) Phase(degrees)
20.141602 90.328 -42.1822
20.287556 90.345 -42.3943
20.434568 90.366 -42.6794
20.582645 90.387 -43.0308
20.731796 90.405 -43.4410
20.882027 90.418 -43.9024
21.033346 90.422 -44.4072
21.185763 90.417 -44.9481
21.339284 90.401 -45.5181
21.493917 90.375 -46.1106
21.649671 90.339 -46.7197
21.806553 90.294 -47.3400
21.964572 90.243 -47.9667
22.123737 90.187 -48.5956
22.284054 90.129 -49.2236
22.445534 90.072 -49.8480
22.608183 90.017 -50.4671
22.772012 89.968 -51.0798
22.937027 89.926 -51.6859
23.103238 89.892 -52.2853
23.270654 89.869 -52.8786
23.439282 89.857 -53.4663
23.609133 89.857 -54.0490
23.780215 89.869 -54.6270
23.952536 89.893 -55.2004
24.126106 89.929 -55.7690
24.300934 89.976 -56.3323
24.477028 90.032 -56.8898
24.654399 90.097 -57.4411
24.833055 90.169 -57.9859
25.013005 90.247 -58.5247
25.194260 90.328 -59.0585
25.376828 90.412 -59.5892
25.560719 90.496 -60.1194
25.745942 90.579 -60.6523
25.932508 90.661 -61.1913
26.120426 90.739 -61.7400
26.309705 90.812 -62.3011
26.500356 90.881 -62.8767
26.692388 90.944 -63.4673
26.885812 91.001 -64.0721
27.080638 91.052 -64.6888
27.276876 91.097 -65.3137
27.474535 91.137 -65.9420
27.673627 91.175 -66.5685
27.874161 91.211 -67.1879
28.076149 91.249 -67.7957
28.279600 91.292 -68.3884
28.484526 91.343 -68.9640
28.690937 91.406 -69.5222
28.898843 91.483 -70.0642
29.108256 91.577 -70.5929
29.319186 91.689 -71.1120
29.531645 91.820 -71.6256
29.745644 91.968 -72.1380
29.961193 92.130 -72.6527
30.178304 92.302 -73.1727
30.396989 92.481 -73.6992
30.617258 92.661 -74.2327
30.839123 92.836 -74.7722
31.062596 93.001 -75.3158
31.287688 93.152 -75.8610
31.514412 93.283 -76.4052
31.742778 93.391 -76.9460
31.972800 93.473 -77.4814
32.204488 93.527 -78.0102
32.437855 93.552 -78.5322
32.672913 93.548 -79.0478
32.909674 93.515 -79.5583
33.148151 93.455 -80.0650
33.388356 93.370 -80.5697
33.630302 93.263 -81.0741
33.874001 93.139 -81.5795
34.119466 93.000 -82.0871
34.366710 92.853 -82.5976
34.615745 92.701 -83.1115
34.866585 92.549 -83.6294
35.119243 92.402 -84.1513
35.373731 92.264 -84.6773
35.630064 92.139 -85.2072
35.888254 92.028 -85.7407
36.148315 91.936 -86.2772
36.410261 91.864 -86.8161
36.674104 91.812 -87.3564
36.939860 91.783 -87.8975
37.207542 91.776 -88.4389
37.477163 91.792 -88.9802
37.748738 91.831 -89.5213
38.022281 91.892 -90.0621
38.297806 91.976 -90.6026
38.575327 92.081 -91.1426
38.854860 92.206 -91.6814
39.136419 92.351 -92.2182
39.420017 92.512 -92.7517
39.705671 92.690 -93.2808
39.993395 92.881 -93.8043
40.283203 93.086 -94.3213
40.575112 93.301 -94.8316
40.869136 93.527 -95.3356
41.165290 93.761 -95.8343
41.463591 94.002 -96.3296
41.764053 94.248 -96.8232
42.066693 94.498 -97.3175
42.371525 94.750 -97.8139
42.678567 95.002 -98.3136
42.987834 95.251 -98.8164
43.299341 95.496 -99.3215
43.613106 95.733 -99.8268
43.929145 95.962 -100.3300
44.247473 96.179 -100.8285
44.568109 96.385 -101.3201
44.891068 96.576 -101.8033
45.216367 96.753 -102.2775
45.544023 96.915 -102.7428
45.874054 97.061 -103.2000
46.206476 97.190 -103.6505
46.541307 97.303 -104.0956
46.878565 97.399 -104.5369
47.218266 97.480 -104.9753
47.560429 97.545 -105.4120
47.905072 97.595 -105.8477
48.252212 97.631 -106.2828
48.601867 97.654 -106.7182
48.954056 97.666 -107.1545
49.308798 97.669 -107.5926
49.666109 97.664 -108.0336
50.026010 97.654 -108.4782
50.388520 97.639 -108.9273
50.753656 97.622 -109.3810
51.121437 97.604 -109.8391
51.491884 97.586 -110.3009
51.865016 97.571 -110.7653
52.240851 97.557 -111.2310
52.619410 97.548 -111.6967
53.000712 97.541 -112.1610
53.384777 97.539 -112.6227
53.771625 97.540 -113.0809
54.161276 97.543 -113.5353
54.553751 97.548 -113.9859
54.949070 97.555 -114.4333
55.347254 97.561 -114.8783
55.748323 97.566 -115.3220
56.152298 97.570 -115.7650
56.559201 97.571 -116.2076
56.969052 97.570 -116.6494
57.381873 97.566 -117.0898
57.797686 97.559 -117.5280
58.216512 97.549 -117.9635
58.638373 97.537 -118.3965
59.063291 97.522 -118.8280
59.491288 97.505 -119.2594
59.922386 97.485 -119.6921
60.356608 97.463 -120.1273
60.793977 97.440 -120.5659
61.234515 97.415 -121.0081
61.678246 97.389 -121.4536
62.125192 97.363 -121.9020
62.575377 97.338 -122.3524
63.028824 97.314 -122.8039
63.485557 97.292 -123.2555
63.945599 97.272 -123.7062
64.408975 97.255 -124.1554
64.875709 97.240 -124.6026
65.345825 97.228 -125.0477
65.819348 97.220 -125.4908
66.296302 97.215 -125.9322
66.776713 97.213 -126.3725
67.260604 97.215 -126.8123
67.748002 97.219 -127.2520
68.238932 97.227 -127.6918
68.733420 97.236 -128.1316
69.231490 97.248 -128.5714
69.733170 97.262 -129.0107
70.238485 97.276 -129.4496
70.747463 97.292 -129.8878
71.260128 97.309 -130.3258
71.776508 97.327 -130.7636
72.296630 97.346 -131.2016
72.820521 97.366 -131.6400
73.348209 97.386 -132.0786
73.879720 97.407 -132.5174
74.415083 97.428 -132.9561
74.954326 97.450 -133.3944
75.497475 97.472 -133.8319
76.044561 97.493 -134.2685
76.595612 97.514 -134.7037
77.150655 97.534 -135.1370
77.709720 97.551 -135.5679
78.272837 97.566 -135.9958
78.840034 97.578 -136.4207
79.411342 97.587 -136.8423
79.986789 97.593 -137.2611
80.566406 97.594 -137.6774
81.150224 97.592 -138.0919
81.738272 97.586 -138.5051
82.330581 97.577 -138.9171
82.927182 97.566 -139.3278
83.528107 97.554 -139.7366
84.133386 97.544 -140.1428
84.743051 97.537 -140.5455
85.357134 97.536 -140.9441
85.975667 97.545 -141.3383
86.598682 97.566 -141.7282
87.226212 97.604 -142.1141
87.858289 97.660 -142.4966
88.494946 97.739 -142.8759
89.136217 97.841 -143.2524
89.782135 97.968 -143.6261
90.432733 98.118 -143.9972
91.088046 98.288 -144.3659
91.748108 98.477 -144.7322
92.412952 98.678 -145.0965
93.082615 98.886 -145.4591
93.757130 99.097 -145.8202
94.436533 99.304 -146.1801
95.120859 99.503 -146.5392
95.810144 99.690 -146.8978
96.504423 99.862 -147.2564
97.203734 100.016 -147.6154
97.908112 100.153 -147.9749
98.617595 100.273 -148.3351
99.332219 100.376 -148.6956
100.052021 100.464 -149.0560
100.777039 100.540 -149.4154
101.507311 100.605 -149.7727
102.242875 100.662 -150.1272
102.983769 100.712 -150.4782
103.730032 100.756 -150.8252
104.481702 100.796 -151.1682
105.238820 100.830 -151.5074
106.001424 100.858 -151.8434
106.769554 100.879 -152.1770
107.543250 100.891 -152.5089
108.322553 100.893 -152.8397
109.107503 100.884 -153.1698
109.898141 100.861 -153.4991
110.694508 100.826 -153.8273
111.496646 100.776 -154.1542
112.304596 100.714 -154.4793
113.118402 100.640 -154.8026
113.938104 100.557 -155.1239
114.763747 100.465 -155.4430
115.595372 100.368 -155.7601
116.433024 100.267 -156.0748
117.276746 100.165 -156.3873
118.126581 100.064 -156.6979
118.982575 99.964 -157.0068
119.844772 99.868 -157.3147
120.713217 99.775 -157.6220
121.587954 99.685 -157.9296
122.469031 99.596 -158.2377
123.356492 99.509 -158.5468
124.250384 99.421 -158.8571
125.150753 99.332 -159.1683
126.057647 99.238 -159.4803
126.971113 99.140 -159.7925
127.891198 99.036 -160.1043
128.817950 98.925 -160.4154
129.751418 98.807 -160.7255
130.691651 98.682 -161.0344
131.638696 98.553 -161.3421
132.592604 98.419 -161.6484
133.553425 98.284 -161.9534
134.521208 98.149 -162.2569
135.496004 98.019 -162.5587
136.477864 97.897 -162.8586
137.466839 97.785 -163.1562
138.462981 97.688 -163.4516
139.466340 97.608 -163.7447
140.476971 97.545 -164.0356
141.494925 97.502 -164.3245
142.520256 97.476 -164.6114
143.553016 97.467 -164.8965
144.593260 97.471 -165.1796
145.641043 97.484 -165.4607
146.696418 97.503 -165.7396
147.759441 97.524 -166.0162
148.830166 97.544 -166.2906
149.908651 97.558 -166.5628
150.994951 97.567 -166.8330
152.089123 97.568 -167.1014
153.191223 97.563 -167.3683
154.301310 97.550 -167.6337
155.419441 97.532 -167.8979
156.545674 97.511 -168.1613
157.680069 97.488 -168.4241
158.822683 97.464 -168.6866
159.973578 97.441 -168.9489
161.132813 97.420 -169.2113
162.300447 97.402 -169.4738
163.476543 97.387 -169.7366
164.661162 97.375 -169.9997
165.854364 97.367 -170.2631
167.056213 97.363 -170.5268
168.266772 97.362 -170.7905
169.486102 97.365 -171.0539
170.714268 97.372 -171.3168
171.951334 97.383 -171.5789
173.197364 97.399 -171.8398
174.452424 97.419 -172.0992
175.716578 97.443 -172.3570
176.989893 97.470 -172.6130
178.272434 97.499 -172.8672
179.564270 97.530 -173.1198
180.865467 97.561 -173.3708
182.176092 97.592 -173.6205
183.496216 97.620 -173.8691
184.825905 97.646 -174.1169
186.165229 97.668 -174.3640
187.514259 97.687 -174.6104
188.873065 97.703 -174.8561
190.241717 97.716 -175.1008
191.620287 97.726 -175.3442
193.008847 97.735 -175.5860
194.407468 97.743 -175.8260
195.816225 97.751 -176.0640
197.235190 97.758 -176.3002
198.664438 97.764 -176.5345
200.104042 97.769 -176.7672
201.554078 97.773 -176.9982
203.014622 97.775 -177.2278
204.485750 97.774 -177.4558
205.967538 97.771 -177.6820
207.460064 97.764 -177.9063
208.963405 97.753 -178.1285
210.477640 97.739 -178.3485
212.002848 97.722 -178.5663
213.539108 97.701 -178.7819
215.086500 97.678 -178.9954
216.645105 97.652 -179.2068
218.215005 97.624 -179.4162
219.796281 97.594 -179.6235
221.389015 97.562 -179.8288
222.993292 97.527 179.9679
224.609193 97.489 179.7664
226.236804 97.447 179.5666
227.876209 97.400 179.3685
229.527494 97.348 179.1718
231.190745 97.290 178.9767
232.866048 97.228 178.7830
234.553491 97.159 178.5908
236.253163 97.086 178.4002
237.965150 97.009 178.2115
239.689544 96.928 178.0246
241.426433 96.845 177.8399
243.175909 96.761 177.6577
244.938062 96.676 177.4781
246.712984 96.591 177.3016
248.500768 96.508 177.1287
250.301507 96.427 176.9600
252.115295 96.348 176.7961
253.942226 96.273 176.6380
255.782396 96.201 176.4865
257.635901 96.135 176.3426
259.502837 96.073 176.2071
261.383301 96.017 176.0808
263.277392 95.968 175.9643
265.185209 95.924 175.8577
267.106850 95.888 175.7611
269.042417 95.858 175.6743
270.992009 95.834 175.5968
272.955729 95.816 175.5281
274.933678 95.805 175.4673
276.925961 95.798 175.4134
278.932681 95.796 175.3649
280.953942 95.799 175.3199
282.989850 95.806 175.2766
285.040511 95.817 175.2328
287.106032 95.833 175.1868
289.186521 95.853 175.1370
291.282086 95.879 175.0820
293.392836 95.910 175.0214
295.518881 95.948 174.9545
297.660333 95.992 174.8817
299.817302 96.041 174.8032
301.989902 96.095 174.7198
304.178245 96.153 174.6324
306.382446 96.212 174.5419
308.602620 96.271 174.4490
310.838882 96.329 174.3546
313.091348 96.382 174.2592
315.360137 96.430 174.1632
317.645367 96.472 174.0670
319.947156 96.506 173.9707
322.265625 96.531 173.8746
324.600895 96.546 173.7789
326.953086 96.552 173.6838
329.322323 96.547 173.5896
331.708729 96.532 173.4965
334.112427 96.506 173.4048
336.533543 96.469 173.3148
338.972204 96.422 173.2264
341.428536 96.366 173.1399
343.902668 96.301 173.0554
346.394729 96.229 172.9729
348.904848 96.151 172.8927
351.433156 96.069 172.8148
353.979786 95.986 172.7393
356.544869 95.904 172.6661
359.128540 95.825 172.5951
361.730934 95.753 172.5262
364.352185 95.690 172.4593
366.992431 95.639 172.3943
369.651810 95.602 172.3310
372.330459 95.582 172.2693
375.028519 95.579 172.2094
377.746130 95.595 172.1509
380.483434 95.627 172.0941
383.240574 95.676 172.0388
386.017693 95.738 171.9850
388.814937 95.812 171.9323
391.632450 95.894 171.8806
394.470380 95.982 171.8296
397.328875 96.073 171.7792
400.208084 96.165 171.7293
403.108157 96.256 171.6799
406.029245 96.345 171.6311
408.971500 96.430 171.5832
411.935076 96.513 171.5365
414.920127 96.592 171.4914
417.926810 96.669 171.4482
420.955280 96.744 171.4070
424.005695 96.817 171.3682
427.078215 96.890 171.3316
430.173000 96.964 171.2974
433.290211 97.037 171.2653
436.430010 97.111 171.2354
439.592562 97.185 171.2074
442.778031 97.257 171.1815
445.986583 97.327 171.1574
449.218386 97.393 171.1350
452.473607 97.453 171.1142
455.752418 97.506 171.0945
459.054987 97.551 171.0758
462.381489 97.586 171.0577
465.732096 97.610 171.0400
469.106983 97.624 171.0225
472.506325 97.627 171.0052
475.930301 97.621 170.9882
479.379088 97.606 170.9716
482.852867 97.582 170.9555
486.351817 97.552 170.9403
489.876123 97.516 170.9264
493.425968 97.475 170.9139
497.001536 97.430 170.9032
500.603014 97.382 170.8942
504.230589 97.331 170.8869
507.884452 97.276 170.8810
511.564792 97.219 170.8764
515.271802 97.159 170.8730
519.005673 97.097 170.8706
522.766602 97.034 170.8694
526.554785 96.970 170.8694
530.370418 96.908 170.8709
534.213700 96.849 170.8741
538.084833 96.795 170.8791
541.984018 96.748 170.8860
545.911457 96.710 170.8948
549.867357 96.681 170.9058
553.851922 96.661 170.9187
557.865362 96.651 170.9337
561.907884 96.648 170.9503
565.979700 96.651 170.9684
570.081022 96.659 170.9877
574.212064 96.668 171.0080
578.373042 96.677 171.0292
582.564171 96.685 171.0513
586.785671 96.688 171.0744
591.037762 96.687 171.0987
595.320665 96.679 171.1241
599.634604 96.665 171.1506
603.979804 96.645 171.1782
608.356491 96.617 171.2065
612.764893 96.584 171.2356
617.205240 96.545 171.2652
621.677763 96.501 171.2952
626.182696 96.455 171.3254
630.720274 96.407 171.3556
635.290733 96.360 171.3853
639.894312 96.315 171.4142
644.531250 96.274 171.4419
649.201789 96.239 171.4681
653.906173 96.211 171.4928
658.644647 96.190 171.5159
663.417457 96.176 171.5378
668.224854 96.168 171.5587
673.067086 96.167 171.5789
677.944408 96.170 171.5987
682.857073 96.175 171.6179
687.805336 96.182 171.6364
692.789457 96.189 171.6538
697.809695 96.194 171.6694
702.866312 96.196 171.6824
707.959571 96.195 171.6921
713.089738 96.189 171.6975
718.257080 96.179 171.6979
723.461867 96.164 171.6928
728.704370 96.144 171.6818
733.984862 96.120 171.6649
739.303619 96.092 171.6423
744.660918 96.061 171.6147
750.057038 96.026 171.5836
755.492260 95.987 171.5513
760.966869 95.946 171.5215
766.481148 95.901 171.4988
772.035387 95.852 171.4894
777.629873 95.798 171.5002
783.264900 95.741 171.5381
788.940760 95.679 171.6093
794.657750 95.613 171.7167
800.416168 95.545 171.8588
806.216313 95.476 172.0280
812.058489 95.405 172.2123
817.943000 95.334 172.3978
823.870152 95.262 172.5720
829.840255 95.189 172.7257
835.853619 95.114 172.8539
841.910559 95.037 172.9548
848.011390 94.958 173.0295
854.156430 94.878 173.0802
860.346000 94.796 173.1104
866.580422 94.714 173.1236
872.860020 94.632 173.1230
879.185124 94.551 173.1112
885.556062 94.473 173.0903
891.973166 94.399 173.0612
898.436771 94.331 173.0244
904.947215 94.268 172.9795
911.504835 94.213 172.9261
918.109975 94.165 172.8636
924.762978 94.126 172.7909
931.464192 94.096 172.7072
938.213966 94.074 172.6120
945.012651 94.060 172.5049
951.860602 94.053 172.3868
958.758176 94.052 172.2590
965.705733 94.056 172.1244
972.703635 94.063 171.9863
979.752246 94.073 171.8494
986.851935 94.084 171.7188
994.003071 94.095 171.6010
1001.206027 94.106 171.5036
1008.461179 94.118 171.4346
1015.768904 94.133 171.4025
1023.129584 94.150 171.4143
1030.543603 94.174 171.4754
1038.011347 94.206 171.5873
1045.533205 94.250 171.7469
1053.109569 94.307 171.9466
1060.740836 94.378 172.1741
1068.427401 94.465 172.4153
1076.169666 94.565 172.6554
1083.968035 94.677 172.8817
1091.822915 94.799 173.0839
1099.734713 94.926 173.2557
1107.703844 95.056 173.3936
1115.730723 95.185 173.4974
1123.815768 95.311 173.5687
1131.959400 95.431 173.6107
1140.162045 95.544 173.6270
1148.424129 95.650 173.6215
1156.746083 95.747 173.5978
1165.128342 95.838 173.5592
1173.571343 95.922 173.5085
1182.075524 96.000 173.4482
1190.641331 96.074 173.3805
1199.269209 96.145 173.3073
1207.959608 96.215 173.2302
1216.712981 96.283 173.1501
1225.529785 96.350 173.0678
1234.410479 96.417 172.9838
1243.355526 96.482 172.8986
1252.365393 96.546 172.8128
1261.440549 96.608 172.7268
1270.581467 96.666 172.6409
1279.788624 96.722 172.5552
1289.062500 96.773 172.4698
1298.403578 96.820 172.3850
1307.812346 96.863 172.3010
1317.289293 96.902 172.2180
1326.834914 96.937 172.1360
1336.449707 96.969 172.0548
1346.134173 96.997 171.9740
1355.888816 97.022 171.8934
1365.714145 97.045 171.8125
1375.610673 97.064 171.7308
1385.578915 97.081 171.6476
1395.619391 97.095 171.5622
1405.732624 97.105 171.4743
1415.919142 97.112 171.3843
1426.179476 97.116 171.2934
1436.514160 97.117 171.2042
1446.923734 97.115 171.1198
1457.408740 97.112 171.0437
1467.969724 97.107 170.9792
1478.607238 97.103 170.9290
1489.321836 97.101 170.8941
1500.114076 97.101 170.8748
1510.984521 97.105 170.8697
1521.933737 97.113 170.8770
1532.962297 97.125 170.8945
1544.070773 97.140 170.9194
1555.259747 97.160 170.9494
1566.529800 97.182 170.9821
1577.881521 97.206 171.0158
1589.315501 97.231 171.0495
1600.832336 97.256 171.0832
1612.432627 97.281 171.1176
1624.116978 97.305 171.1541
1635.886000 97.328 171.1941
1647.740304 97.350 171.2390
1659.680509 97.370 171.2903
1671.707238 97.389 171.3501
1683.821118 97.408 171.4200
1696.022780 97.426 171.5016
1708.312860 97.445 171.5962
1720.692000 97.465 171.7042
1733.160843 97.486 171.8255
1745.720041 97.509 171.9592
1758.370248 97.534 172.1034
1771.112124 97.561 172.2558
1783.946332 97.589 172.4138
1796.873543 97.618 172.5750
1809.894429 97.648 172.7377
1823.009670 97.677 172.9000
1836.219950 97.706 173.0600
1849.525956 97.733 173.2166
1862.928384 97.759 173.3697
1876.427931 97.783 173.5208
1890.025301 97.805 173.6727
1903.721204 97.825 173.8284
1917.516352 97.844 173.9909
1931.411466 97.862 174.1624
1945.407270 97.878 174.3448
1959.504493 97.893 174.5389
1973.703870 97.906 174.7444
1988.006142 97.918 174.9595
2002.412054 97.927 175.1809
2016.922357 97.932 175.4049
2031.537808 97.934 175.6280
2046.259169 97.930 175.8472
2061.087206 97.919 176.0609
2076.022694 97.902 176.2684
2091.066410 97.878 176.4708
2106.219139 97.846 176.6700
2121.481671 97.808 176.8685
2136.854802 97.764 177.0690
2152.339333 97.716 177.2737
2167.936071 97.665 177.4842
2183.645829 97.613 177.7010
2199.469427 97.562 177.9241
2215.407689 97.514 178.1520
2231.461446 97.469 178.3826
2247.631536 97.430 178.6130
2263.918800 97.397 178.8397
2280.324089 97.370 179.0590
2296.848258 97.349 179.2672
2313.492167 97.335 179.4612
2330.256685 97.326 179.6382
2347.142685 97.321 179.7968
2364.151049 97.320 179.9365
2381.282662 97.323 -179.9423
2398.538418 97.328 -179.8387
2415.919216 97.335 -179.7515
2433.425962 97.344 -179.6798
2451.059570 97.355 -179.6227
2468.820958 97.369 -179.5793
2486.711052 97.385 -179.5492
2504.730786 97.404 -179.5323
2522.881098 97.425 -179.5291
2541.162934 97.451 -179.5401
2559.577248 97.481 -179.5655
2578.125000 97.515 -179.6052
2596.807157 97.555 -179.6584
2615.624692 97.601 -179.7240
2634.578586 97.653 -179.8002
2653.669829 97.713 -179.8852
2672.899414 97.780 -179.9769
2692.268345 97.855 179.9263
2711.777632 97.937 179.8258
2731.428290 98.027 179.7227
2751.221345 98.124 179.6180
2771.157829 98.225 179.5126
2791.238781 98.330 179.4073
2811.465248 98.437 179.3031
2831.838284 98.543 179.2018
2852.358952 98.647 179.1058
2873.028321 98.746 179.0186
2893.847468 98.839 178.9442
2914.817480 98.925 178.8865
2935.939449 99.002 178.8498
2957.214476 99.071 178.8380
2978.643672 99.130 178.8541
3000.228152 99.180 178.8998
3021.969041 99.223 178.9750
3043.867475 99.259 179.0773
3065.924593 99.290 179.2023
3088.141547 99.316 179.3434
3110.519493 99.339 179.4926
3133.059600 99.361 179.6410
3155.763041 99.381 179.7797
3178.631001 99.400 179.9014
3201.664672 99.419 -179.9997
3224.865254 99.436 -179.9270
3248.233957 99.452 -179.8819
3271.771999 99.467 -179.8646
3295.480608 99.480 -179.8737
3319.361019 99.491 -179.9076
3343.414477 99.500 -179.9638
3367.642236 99.507 179.9601
3392.045560 99.512 179.8672
3416.625721 99.514 179.7605
3441.383999 99.514 179.6434
3466.321686 99.512 179.5197
3491.440082 99.509 179.3934
3516.740496 99.503 179.2694
3542.224247 99.497 179.1524
3567.892664 99.491 179.0475
3593.747085 99.486 178.9593
3619.788858 99.483 178.8922
3646.019340 99.483 178.8498
3672.439900 99.486 178.8348
3699.051913 99.495 178.8494
3725.856768 99.508 178.8946
3752.855862 99.529 178.9712
3780.050603 99.555 179.0791
3807.442408 99.590 179.2177
3835.032705 99.632 179.3854
3862.822933 99.682 179.5797
3890.814540 99.740 179.7972
3919.008986 99.807 -179.9657
3947.407741 99.882 -179.7135
3976.012284 99.964 -179.4503
4004.824108 100.054 -179.1802
4033.844715 100.151 -178.9071
4063.075616 100.255 -178.6348
4092.518337 100.366 -178.3679
4122.174412 100.483 -178.1115
4152.045387 100.606 -177.8717
4182.132820 100.736 -177.6554
4212.438278 100.871 -177.4705
4242.963342 101.011 -177.3252
4273.709604 101.155 -177.2276
4304.678665 101.303 -177.1852
4335.872141 101.452 -177.2044
4367.291658 101.602 -177.2903
4398.938854 101.750 -177.4466
4430.815378 101.895 -177.6759
4462.922893 102.036 -177.9795
4495.263072 102.170 -178.3579
4527.837601 102.297 -178.8104
4560.648179 102.414 -179.3349
4593.696515 102.521 -179.9284
4626.984334 102.617 179.4133
4660.513370 102.701 178.6948
4694.285371 102.773 177.9210
4728.302098 102.834 177.0966
4762.565324 102.884 176.2260
4797.076835 102.923 175.3127
4831.838432 102.953 174.3597
4866.851925 102.975 173.3692
4902.119140 102.989 172.3422
4937.641916 102.997 171.2790
4973.422105 102.999 170.1794
5009.461572 102.995 169.0427
5045.762195 102.985 167.8680
5082.325868 102.970 166.6547
5119.154496 102.949 165.4026
5156.250000 102.920 164.1122
5193.614313 102.883 162.7853
5231.249383 102.836 161.4247
5269.157173 102.778 160.0354
5307.339658 102.707 158.6237
5345.798829 102.621 157.1981
5384.536691 102.518 155.7684
5423.555263 102.398 154.3463
5462.856580 102.260 152.9449
5502.442691 102.102 151.5781
5542.315659 101.925 150.2601
5582.477563 101.729 149.0056
5622.930497 101.515 147.8283
5663.676569 101.283 146.7419
5704.717904 101.036 145.7595
5746.056642 100.776 144.8933
5787.694937 100.503 144.1555
5829.634960 100.222 143.5576
5871.878898 99.934 143.1108
5914.428953 99.643 142.8264
5957.287343 99.351 142.7153
6000.456303 99.060 142.7885
6043.938083 98.775 143.0560
6087.734950 98.499 143.5251
6131.849187 98.234 144.1988
6176.283094 97.985 145.0738
6221.038987 97.754 146.1382
6266.119200 97.544 147.3711
6311.526083 97.358 148.7420
6357.262002 97.196 150.2129
6403.329344 97.058 151.7408
6449.730508 96.943 153.2827
6496.467914 96.849 154.7986
6543.543998 96.772 156.2557
6590.961215 96.710 157.6299
6638.722037 96.659 158.9068
6686.828954 96.617 160.0807
6735.284473 96.582 161.1528
6784.091120 96.553 162.1285
6833.251441 96.530 163.0152
6882.767998 96.514 163.8193
6932.643372 96.506 164.5448
6982.880164 96.508 165.1923
7033.480992 96.520 165.7582
7084.448495 96.543 166.2355
7135.785329 96.578 166.6140
7187.494171 96.625 166.8814
7239.577717 96.680 167.0251
7292.038681 96.743 167.0324
7344.879799 96.810 166.8925
7398.103826 96.876 166.5960
7451.713536 96.939 166.1365
7505.711724 96.994 165.5093
7560.101205 97.036 164.7123
7614.884815 97.062 163.7449
7670.065409 97.067 162.6080
7725.645865 97.047 161.3036
7781.629080 96.999 159.8349
7838.017972 96.919 158.2064
7894.815481 96.804 156.4250
7952.024569 96.651 154.5006
8009.648217 96.457 152.4489
8067.689429 96.219 150.2942
8126.151233 95.935 148.0734
8185.036674 95.602 145.8434
8244.348824 95.221 143.6912
8304.090774 94.793 141.7520
8364.265639 94.325 140.2455
8424.876556 93.827 139.5516
8485.926684 93.317 140.3917
8547.419207 92.822 144.3154
8609.357330 92.376 155.0597
8671.744282 92.017 -179.6595
8734.583316 91.781 -143.3683
8797.877707 91.694 -120.6396
8861.630756 91.761 -110.8282
8925.845785 91.969 -106.7526
8990.526143 92.292 -105.2277
9055.675202 92.698 -104.9497
9121.296357 93.158 -105.3311
9187.393031 93.649 -106.0851
9253.968668 94.151 -107.0661
9321.026740 94.652 -108.2015
9388.570742 95.143 -109.4589
9456.604196 95.616 -110.8286
9525.130648 96.068 -112.3130
9594.153671 96.493 -113.9201
9663.676863 96.888 -115.6593
9733.703850 97.250 -117.5375
9804.238280 97.576 -119.5578
9875.283832 97.864 -121.7182
9946.844210 98.111 -124.0107
10018.923143 98.316 -126.4214
10091.524390 98.478 -128.9308
10164.651736 98.597 -131.5145
10238.308993 98.674 -134.1440
10312.500000 98.710 -136.7884
10387.228626 98.708 -139.4157
10462.498767 98.670 -141.9954
10538.314345 98.603 -144.5002
10614.679315 98.511 -146.9085
10691.597657 98.400 -149.2061
10769.073381 98.277 -151.3883
10847.110526 98.146 -153.4605
10925.713161 98.015 -155.4384
11004.885382 97.886 -157.3474
11084.631318 97.762 -159.2208
11164.955126 97.645 -161.0971
11245.860993 97.533 -163.0161
11327.353138 97.423 -165.0159
11409.435808 97.312 -167.1284
11492.113283 97.192 -169.3763
11575.389873 97.059 -171.7711
11659.269920 96.905 -174.3120
11743.757796 96.726 -176.9864
11828.857906 96.515 -179.7717
11914.574686 96.271 177.3608
12000.912606 95.991 174.4429
12087.876166 95.676 171.5050
12175.469900 95.328 168.5734
12263.698373 94.948 165.6691
12352.566187 94.540 162.8069
12442.077974 94.107 159.9969
12532.238400 93.650 157.2454
12623.052165 93.173 154.5561
12714.524005 92.677 151.9315
12806.658687 92.165 149.3727
12899.461015 91.637 146.8787
12992.935827 91.097 144.4452
13087.087996 90.548 142.0616
13181.922430 89.995 139.7098
13277.444074 89.444 137.3618
13373.657907 88.900 134.9796
13470.568945 88.372 132.5159
13568.182241 87.866 129.9160
13666.502883 87.391 127.1210
13765.535996 86.951 124.0717
13865.286744 86.551 120.7126
13965.760328 86.192 116.9955
14066.961984 85.874 112.8820
14168.896989 85.592 108.3453
14271.570658 85.341 103.3714
14374.988342 85.114 97.9602
14479.155433 84.902 92.1264
14584.077362 84.698 85.9004
14689.759598 84.492 79.3287
14796.207652 84.277 72.4742
14903.427072 84.048 65.4137
15011.423448 83.800 58.2352
15120.202410 83.531 51.0335
15229.769630 83.241 43.9049
15340.130819 82.933 36.9416
15451.291730 82.613 30.2267
15563.258160 82.290 23.8304
15676.035944 81.976 17.8060
15789.630962 81.688 12.1849
15904.049137 81.446 6.9706
16019.296433 81.274 2.1318
16135.378859 81.192 -2.4005
16252.302465 81.214 -6.7313
16370.073348 81.341 -10.9911
16488.697648 81.562 -15.3192
16608.181548 81.855 -19.8459
16728.531278 82.189 -24.6766
16849.753112 82.535 -29.8833
16971.853368 82.865 -35.5016
17094.838414 83.154 -41.5325
17218.714660 83.383 -47.9476
17343.488565 83.536 -54.6931
17469.166632 83.602 -61.6957
17595.755415 83.573 -68.8667
17723.261512 83.445 -76.1060
17851.691571 83.213 -83.3063
17981.052287 82.880 -90.3577
18111.350404 82.447 -97.1533
18242.592715 81.920 -103.5972
18374.786062 81.307 -109.6115
18507.937336 80.620 -115.1434
18642.053479 79.871 -120.1669
18777.141484 79.075 -124.6752
18913.208391 78.249 -128.6652
19050.261296 77.410 -132.1118
19188.307342 76.578 -134.9467
19327.353727 75.774 -137.0492
19467.407699 75.025 -138.2723
19608.476560 74.362 -138.5219
19750.567664 73.820 -137.8978
19893.688419 73.435 -136.8297
20037.846286 73.234 -136.0122
