* Measurement data measured by REW V5.31.3
* Source: EXCL: Headset (USB-C to 3.5mm Headphone Jack Adapter), MICROPHONE (Master Volume), 0, volume: 0.260
* Format: 256k Log Swept Sine, 1 sweep at -12.0 dBFS with no timing reference
* Dated: Feb 9, 2025 9:39:53 PM
* REW Settings:
*  C-weighting compensation: Off
*  Target level: 75.0 dB
* Note: ; 
* Measurement: HD650 (Worn) R4
* Smoothing: 1/6 octave
* Frequency Step: 96 ppo
* Start Frequency: 20.0 Hz
*
* Freq(Hz) SPL(dB) Phase(degrees)
20.141602 86.551 -27.0943
20.287556 86.560 -27.2228
20.434568 86.572 -27.3955
20.582645 86.583 -27.6087
20.731796 86.592 -27.8591
20.882027 86.596 -28.1443
21.033346 86.594 -28.4629
21.185763 86.586 -28.8146
21.339284 86.572 -29.1995
21.493917 86.551 -29.6180
21.649671 86.524 -30.0700
21.806553 86.493 -30.5549
21.964572 86.458 -31.0706
22.123737 86.422 -31.6144
22.284054 86.385 -32.1821
22.445534 86.349 -32.7687
22.608183 86.314 -33.3687
22.772012 86.284 -33.9761
22.937027 86.258 -34.5856
23.103238 86.238 -35.1920
23.270654 86.225 -35.7917
23.439282 86.222 -36.3819
23.609133 86.228 -36.9617
23.780215 86.245 -37.5315
23.952536 86.275 -38.0932
24.126106 86.317 -38.6500
24.300934 86.373 -39.2056
24.477028 86.441 -39.7641
24.654399 86.520 -40.3291
24.833055 86.610 -40.9037
25.013005 86.708 -41.4896
25.194260 86.812 -42.0872
25.376828 86.919 -42.6954
25.560719 87.028 -43.3117
25.745942 87.137 -43.9329
25.932508 87.243 -44.5549
26.120426 87.346 -45.1741
26.309705 87.444 -45.7870
26.500356 87.538 -46.3912
26.692388 87.625 -46.9854
26.885812 87.707 -47.5696
27.080638 87.784 -48.1446
27.276876 87.856 -48.7120
27.474535 87.923 -49.2734
27.673627 87.987 -49.8305
27.874161 88.050 -50.3841
28.076149 88.113 -50.9344
28.279600 88.180 -51.4808
28.484526 88.252 -52.0226
28.690937 88.334 -52.5586
28.898843 88.428 -53.0885
29.108256 88.537 -53.6128
29.319186 88.663 -54.1329
29.531645 88.806 -54.6518
29.745644 88.965 -55.1732
29.961193 89.138 -55.7012
30.178304 89.322 -56.2398
30.396989 89.513 -56.7922
30.617258 89.703 -57.3601
30.839123 89.890 -57.9439
31.062596 90.066 -58.5422
31.287688 90.227 -59.1524
31.514412 90.370 -59.7715
31.742778 90.490 -60.3960
31.972800 90.587 -61.0230
32.204488 90.657 -61.6504
32.437855 90.700 -62.2768
32.672913 90.716 -62.9016
32.909674 90.707 -63.5247
33.148151 90.674 -64.1457
33.388356 90.618 -64.7640
33.630302 90.542 -65.3783
33.874001 90.448 -65.9863
34.119466 90.341 -66.5855
34.366710 90.224 -67.1729
34.615745 90.100 -67.7458
34.866585 89.974 -68.3020
35.119243 89.849 -68.8406
35.373731 89.730 -69.3618
35.630064 89.620 -69.8674
35.888254 89.523 -70.3604
36.148315 89.442 -70.8449
36.410261 89.381 -71.3257
36.674104 89.340 -71.8078
36.939860 89.323 -72.2960
37.207542 89.329 -72.7942
37.477163 89.359 -73.3054
37.748738 89.413 -73.8314
38.022281 89.491 -74.3726
38.297806 89.591 -74.9282
38.575327 89.712 -75.4963
38.854860 89.854 -76.0743
39.136419 90.014 -76.6592
39.420017 90.191 -77.2478
39.705671 90.385 -77.8373
39.993395 90.593 -78.4252
40.283203 90.814 -79.0100
40.575112 91.046 -79.5904
40.869136 91.289 -80.1660
41.165290 91.541 -80.7365
41.463591 91.799 -81.3019
41.764053 92.063 -81.8618
42.066693 92.330 -82.4160
42.371525 92.598 -82.9639
42.678567 92.865 -83.5049
42.987834 93.129 -84.0385
43.299341 93.389 -84.5641
43.613106 93.641 -85.0816
43.929145 93.884 -85.5906
44.247473 94.116 -86.0912
44.568109 94.336 -86.5840
44.891068 94.541 -87.0698
45.216367 94.732 -87.5498
45.544023 94.906 -88.0260
45.874054 95.064 -88.5005
46.206476 95.205 -88.9754
46.541307 95.328 -89.4530
46.878565 95.435 -89.9348
47.218266 95.525 -90.4222
47.560429 95.599 -90.9164
47.905072 95.659 -91.4182
48.252212 95.705 -91.9286
48.601867 95.739 -92.4482
48.954056 95.762 -92.9772
49.308798 95.776 -93.5145
49.666109 95.782 -94.0578
50.026010 95.781 -94.6035
50.388520 95.776 -95.1473
50.753656 95.767 -95.6845
51.121437 95.757 -96.2116
51.491884 95.747 -96.7263
51.865016 95.739 -97.2286
52.240851 95.734 -97.7200
52.619410 95.733 -98.2033
53.000712 95.735 -98.6822
53.384777 95.741 -99.1599
53.771625 95.751 -99.6391
54.161276 95.763 -100.1218
54.553751 95.777 -100.6087
54.949070 95.791 -101.1005
55.347254 95.805 -101.5971
55.748323 95.818 -102.0988
56.152298 95.829 -102.6059
56.559201 95.838 -103.1187
56.969052 95.844 -103.6373
57.381873 95.847 -104.1614
57.797686 95.847 -104.6901
58.216512 95.844 -105.2214
58.638373 95.839 -105.7527
59.063291 95.831 -106.2809
59.491288 95.822 -106.8030
59.922386 95.813 -107.3165
60.356608 95.804 -107.8203
60.793977 95.796 -108.3145
61.234515 95.788 -108.8005
61.678246 95.781 -109.2807
62.125192 95.775 -109.7581
62.575377 95.769 -110.2357
63.028824 95.764 -110.7160
63.485557 95.761 -111.2008
63.945599 95.758 -111.6904
64.408975 95.757 -112.1844
64.875709 95.757 -112.6813
65.345825 95.759 -113.1790
65.819348 95.763 -113.6759
66.296302 95.769 -114.1708
66.776713 95.777 -114.6635
67.260604 95.787 -115.1547
67.748002 95.799 -115.6452
68.238932 95.814 -116.1362
68.733420 95.830 -116.6284
69.231490 95.849 -117.1219
69.733170 95.870 -117.6164
70.238485 95.893 -118.1115
70.747463 95.917 -118.6067
71.260128 95.942 -119.1016
71.776508 95.969 -119.5962
72.296630 95.998 -120.0904
72.820521 96.027 -120.5843
73.348209 96.057 -121.0782
73.879720 96.088 -121.5723
74.415083 96.119 -122.0665
74.954326 96.150 -122.5611
75.497475 96.180 -123.0560
76.044561 96.210 -123.5512
76.595612 96.239 -124.0462
77.150655 96.266 -124.5406
77.709720 96.291 -125.0335
78.272837 96.313 -125.5244
78.840034 96.331 -126.0126
79.411342 96.347 -126.4977
79.986789 96.358 -126.9792
80.566406 96.366 -127.4567
81.150224 96.370 -127.9300
81.738272 96.370 -128.3991
82.330581 96.368 -128.8640
82.927182 96.364 -129.3248
83.528107 96.359 -129.7819
84.133386 96.356 -130.2355
84.743051 96.357 -130.6859
85.357134 96.365 -131.1333
85.975667 96.383 -131.5781
86.598682 96.414 -132.0205
87.226212 96.462 -132.4609
87.858289 96.529 -132.8995
88.494946 96.618 -133.3365
89.136217 96.732 -133.7724
89.782135 96.869 -134.2074
90.432733 97.029 -134.6416
91.088046 97.210 -135.0753
91.748108 97.407 -135.5083
92.412952 97.617 -135.9407
93.082615 97.833 -136.3723
93.757130 98.050 -136.8031
94.436533 98.263 -137.2331
95.120859 98.468 -137.6622
95.810144 98.659 -138.0903
96.504423 98.835 -138.5170
97.203734 98.994 -138.9420
97.908112 99.135 -139.3649
98.617595 99.258 -139.7854
99.332219 99.365 -140.2034
100.052021 99.457 -140.6190
100.777039 99.536 -141.0324
101.507311 99.604 -141.4439
102.242875 99.664 -141.8537
102.983769 99.717 -142.2616
103.730032 99.764 -142.6676
104.481702 99.807 -143.0716
105.238820 99.844 -143.4733
106.001424 99.875 -143.8725
106.769554 99.899 -144.2692
107.543250 99.914 -144.6631
108.322553 99.919 -145.0542
109.107503 99.913 -145.4422
109.898141 99.893 -145.8270
110.694508 99.861 -146.2084
111.496646 99.814 -146.5863
112.304596 99.755 -146.9609
113.118402 99.683 -147.3322
113.938104 99.601 -147.7005
114.763747 99.511 -148.0662
115.595372 99.415 -148.4293
116.433024 99.316 -148.7900
117.276746 99.215 -149.1485
118.126581 99.115 -149.5049
118.982575 99.016 -149.8591
119.844772 98.921 -150.2113
120.713217 98.828 -150.5618
121.587954 98.739 -150.9106
122.469031 98.652 -151.2579
123.356492 98.566 -151.6037
124.250384 98.480 -151.9476
125.150753 98.393 -152.2894
126.057647 98.302 -152.6287
126.971113 98.207 -152.9656
127.891198 98.107 -153.3002
128.817950 98.000 -153.6333
129.751418 97.886 -153.9652
130.691651 97.767 -154.2966
131.638696 97.642 -154.6278
132.592604 97.514 -154.9589
133.553425 97.384 -155.2901
134.521208 97.255 -155.6213
135.496004 97.130 -155.9526
136.477864 97.013 -156.2841
137.466839 96.907 -156.6156
138.462981 96.815 -156.9471
139.466340 96.740 -157.2784
140.476971 96.683 -157.6092
141.494925 96.644 -157.9392
142.520256 96.624 -158.2681
143.553016 96.620 -158.5957
144.593260 96.629 -158.9219
145.641043 96.647 -159.2468
146.696418 96.671 -159.5703
147.759441 96.696 -159.8924
148.830166 96.720 -160.2129
149.908651 96.738 -160.5319
150.994951 96.750 -160.8492
152.089123 96.755 -161.1647
153.191223 96.751 -161.4786
154.301310 96.741 -161.7909
155.419441 96.724 -162.1019
156.545674 96.704 -162.4119
157.680069 96.682 -162.7210
158.822683 96.659 -163.0295
159.973578 96.637 -163.3375
161.132813 96.617 -163.6448
162.300447 96.600 -163.9513
163.476543 96.586 -164.2570
164.661162 96.575 -164.5615
165.854364 96.568 -164.8650
167.056213 96.565 -165.1674
168.266772 96.565 -165.4686
169.486102 96.570 -165.7686
170.714268 96.578 -166.0674
171.951334 96.591 -166.3647
173.197364 96.608 -166.6605
174.452424 96.629 -166.9547
175.716578 96.654 -167.2471
176.989893 96.682 -167.5375
178.272434 96.713 -167.8257
179.564270 96.745 -168.1116
180.865467 96.777 -168.3953
182.176092 96.809 -168.6769
183.496216 96.838 -168.9565
184.825905 96.865 -169.2341
186.165229 96.889 -169.5098
187.514259 96.910 -169.7834
188.873065 96.927 -170.0547
190.241717 96.942 -170.3237
191.620287 96.954 -170.5902
193.008847 96.965 -170.8544
194.407468 96.974 -171.1163
195.816225 96.983 -171.3761
197.235190 96.992 -171.6340
198.664438 96.999 -171.8901
200.104042 97.006 -172.1447
201.554078 97.011 -172.3980
203.014622 97.015 -172.6504
204.485750 97.015 -172.9018
205.967538 97.014 -173.1524
207.460064 97.008 -173.4019
208.963405 97.000 -173.6501
210.477640 96.988 -173.8966
212.002848 96.972 -174.1412
213.539108 96.954 -174.3840
215.086500 96.933 -174.6250
216.645105 96.910 -174.8644
218.215005 96.884 -175.1024
219.796281 96.857 -175.3391
221.389015 96.827 -175.5745
222.993292 96.794 -175.8085
224.609193 96.758 -176.0409
226.236804 96.718 -176.2715
227.876209 96.674 -176.5002
229.527494 96.624 -176.7265
231.190745 96.569 -176.9504
232.866048 96.508 -177.1714
234.553491 96.442 -177.3894
236.253163 96.371 -177.6042
237.965150 96.296 -177.8157
239.689544 96.218 -178.0240
241.426433 96.137 -178.2293
243.175909 96.055 -178.4315
244.938062 95.973 -178.6306
246.712984 95.891 -178.8264
248.500768 95.810 -179.0187
250.301507 95.731 -179.2073
252.115295 95.655 -179.3918
253.942226 95.583 -179.5718
255.782396 95.515 -179.7468
257.635901 95.452 -179.9163
259.502837 95.394 179.9203
261.383301 95.341 179.7635
263.277392 95.295 179.6138
265.185209 95.255 179.4718
267.106850 95.222 179.3378
269.042417 95.194 179.2122
270.992009 95.173 179.0951
272.955729 95.158 178.9865
274.933678 95.148 178.8864
276.925961 95.143 178.7940
278.932681 95.142 178.7084
280.953942 95.146 178.6282
282.989850 95.154 178.5516
285.040511 95.166 178.4766
287.106032 95.183 178.4009
289.186521 95.204 178.3228
291.282086 95.231 178.2404
293.392836 95.265 178.1524
295.518881 95.304 178.0581
297.660333 95.350 177.9573
299.817302 95.402 177.8500
301.989902 95.458 177.7370
304.178245 95.518 177.6188
306.382446 95.579 177.4965
308.602620 95.641 177.3708
310.838882 95.700 177.2427
313.091348 95.756 177.1129
315.360137 95.806 176.9820
317.645367 95.850 176.8506
319.947156 95.885 176.7192
322.265625 95.912 176.5880
324.600895 95.929 176.4573
326.953086 95.936 176.3275
329.322323 95.932 176.1985
331.708729 95.918 176.0708
334.112427 95.893 175.9446
336.533543 95.857 175.8201
338.972204 95.811 175.6975
341.428536 95.756 175.5771
343.902668 95.692 175.4588
346.394729 95.620 175.3428
348.904848 95.543 175.2292
351.433156 95.462 175.1180
353.979786 95.380 175.0096
356.544869 95.298 174.9041
359.128540 95.220 174.8015
361.730934 95.148 174.7020
364.352185 95.085 174.6054
366.992431 95.035 174.5117
369.651810 94.998 174.4206
372.330459 94.979 174.3322
375.028519 94.976 174.2464
377.746130 94.992 174.1632
380.483434 95.024 174.0826
383.240574 95.073 174.0045
386.017693 95.135 173.9288
388.814937 95.209 173.8552
391.632450 95.291 173.7835
394.470380 95.380 173.7134
397.328875 95.472 173.6445
400.208084 95.564 173.5765
403.108157 95.656 173.5091
406.029245 95.746 173.4420
408.971500 95.833 173.3751
411.935076 95.917 173.3084
414.920127 95.997 173.2420
417.926810 96.075 173.1761
420.955280 96.151 173.1107
424.005695 96.225 173.0460
427.078215 96.299 172.9821
430.173000 96.373 172.9193
433.290211 96.447 172.8575
436.430010 96.521 172.7971
439.592562 96.595 172.7380
442.778031 96.667 172.6804
445.986583 96.737 172.6244
449.218386 96.803 172.5701
452.473607 96.863 172.5174
455.752418 96.916 172.4664
459.054987 96.961 172.4170
462.381489 96.996 172.3691
465.732096 97.021 172.3225
469.106983 97.036 172.2773
472.506325 97.040 172.2335
475.930301 97.034 172.1908
479.379088 97.019 172.1494
482.852867 96.997 172.1089
486.351817 96.967 172.0695
489.876123 96.931 172.0309
493.425968 96.891 171.9934
497.001536 96.846 171.9570
500.603014 96.797 171.9218
504.230589 96.745 171.8881
507.884452 96.690 171.8560
511.564792 96.633 171.8257
515.271802 96.572 171.7974
519.005673 96.510 171.7712
522.766602 96.446 171.7473
526.554785 96.382 171.7257
530.370418 96.320 171.7063
534.213700 96.261 171.6888
538.084833 96.208 171.6730
541.984018 96.162 171.6584
545.911457 96.124 171.6445
549.867357 96.096 171.6309
553.851922 96.077 171.6174
557.865362 96.067 171.6036
561.907884 96.065 171.5897
565.979700 96.068 171.5757
570.081022 96.075 171.5621
574.212064 96.084 171.5491
578.373042 96.093 171.5369
582.564171 96.099 171.5258
586.785671 96.101 171.5159
591.037762 96.099 171.5073
595.320665 96.090 171.5004
599.634604 96.074 171.4951
603.979804 96.051 171.4916
608.356491 96.022 171.4903
612.764893 95.986 171.4913
617.205240 95.944 171.4948
621.677763 95.898 171.5008
626.182696 95.848 171.5092
630.720274 95.797 171.5197
635.290733 95.747 171.5319
639.894312 95.699 171.5450
644.531250 95.655 171.5588
649.201789 95.617 171.5727
653.906173 95.586 171.5864
658.644647 95.562 171.5995
663.417457 95.546 171.6120
668.224854 95.537 171.6237
673.067086 95.533 171.6348
677.944408 95.535 171.6453
682.857073 95.539 171.6556
687.805336 95.544 171.6659
692.789457 95.549 171.6763
697.809695 95.552 171.6868
702.866312 95.553 171.6972
707.959571 95.550 171.7073
713.089738 95.543 171.7169
718.257080 95.531 171.7260
723.461867 95.515 171.7346
728.704370 95.495 171.7429
733.984862 95.471 171.7509
739.303619 95.444 171.7592
744.660918 95.414 171.7679
750.057038 95.383 171.7776
755.492260 95.351 171.7886
760.966869 95.317 171.8015
766.481148 95.284 171.8162
772.035387 95.249 171.8326
777.629873 95.213 171.8504
783.264900 95.176 171.8688
788.940760 95.136 171.8866
794.657750 95.093 171.9027
800.416168 95.045 171.9158
806.216313 94.993 171.9249
812.058489 94.935 171.9290
817.943000 94.872 171.9272
823.870152 94.803 171.9189
829.840255 94.728 171.9036
835.853619 94.648 171.8811
841.910559 94.563 171.8511
848.011390 94.475 171.8136
854.156430 94.384 171.7686
860.346000 94.292 171.7160
866.580422 94.199 171.6559
872.860020 94.107 171.5885
879.185124 94.016 171.5139
885.556062 93.928 171.4323
891.973166 93.844 171.3435
898.436771 93.764 171.2474
904.947215 93.690 171.1434
911.504835 93.623 171.0311
918.109975 93.563 170.9101
924.762978 93.510 170.7802
931.464192 93.464 170.6421
938.213966 93.424 170.4973
945.012651 93.391 170.3486
951.860602 93.364 170.2002
958.758176 93.340 170.0583
965.705733 93.319 169.9311
972.703635 93.300 169.8286
979.752246 93.284 169.7620
986.851935 93.269 169.7427
994.003071 93.259 169.7808
1001.206027 93.253 169.8829
1008.461179 93.256 170.0504
1015.768904 93.270 170.2783
1023.129584 93.297 170.5550
1030.543603 93.340 170.8643
1038.011347 93.400 171.1871
1045.533205 93.478 171.5043
1053.109569 93.572 171.7994
1060.740836 93.680 172.0597
1068.427401 93.801 172.2770
1076.169666 93.931 172.4477
1083.968035 94.068 172.5717
1091.822915 94.208 172.6518
1099.734713 94.349 172.6930
1107.703844 94.488 172.7010
1115.730723 94.623 172.6819
1123.815768 94.752 172.6415
1131.959400 94.874 172.5848
1140.162045 94.988 172.5157
1148.424129 95.094 172.4371
1156.746083 95.193 172.3510
1165.128342 95.285 172.2583
1173.571343 95.371 172.1596
1182.075524 95.453 172.0547
1190.641331 95.532 171.9434
1199.269209 95.608 171.8252
1207.959608 95.684 171.6995
1216.712981 95.758 171.5658
1225.529785 95.833 171.4239
1234.410479 95.906 171.2733
1243.355526 95.978 171.1142
1252.365393 96.048 170.9469
1261.440549 96.115 170.7721
1270.581467 96.178 170.5910
1279.788624 96.237 170.4049
1289.062500 96.290 170.2155
1298.403578 96.339 170.0246
1307.812346 96.382 169.8336
1317.289293 96.420 169.6439
1326.834914 96.453 169.4561
1336.449707 96.482 169.2710
1346.134173 96.507 169.0887
1355.888816 96.528 168.9095
1365.714145 96.546 168.7333
1375.610673 96.560 168.5600
1385.578915 96.572 168.3892
1395.619391 96.579 168.2203
1405.732624 96.584 168.0530
1415.919142 96.585 167.8870
1426.179476 96.584 167.7224
1436.514160 96.579 167.5602
1446.923734 96.573 167.4019
1457.408740 96.564 167.2497
1467.969724 96.556 167.1055
1478.607238 96.547 166.9711
1489.321836 96.540 166.8468
1500.114076 96.535 166.7322
1510.984521 96.533 166.6263
1521.933737 96.533 166.5276
1532.962297 96.536 166.4352
1544.070773 96.541 166.3492
1555.259747 96.548 166.2700
1566.529800 96.556 166.1986
1577.881521 96.564 166.1367
1589.315501 96.572 166.0855
1600.832336 96.580 166.0464
1612.432627 96.587 166.0208
1624.116978 96.592 166.0100
1635.886000 96.597 166.0154
1647.740304 96.601 166.0381
1659.680509 96.605 166.0784
1671.707238 96.609 166.1354
1683.821118 96.615 166.2074
1696.022780 96.621 166.2914
1708.312860 96.630 166.3844
1720.692000 96.641 166.4839
1733.160843 96.653 166.5889
1745.720041 96.666 166.6998
1758.370248 96.681 166.8180
1771.112124 96.696 166.9453
1783.946332 96.712 167.0831
1796.873543 96.729 167.2321
1809.894429 96.746 167.3915
1823.009670 96.763 167.5596
1836.219950 96.781 167.7341
1849.525956 96.799 167.9120
1862.928384 96.817 168.0906
1876.427931 96.835 168.2675
1890.025301 96.853 168.4409
1903.721204 96.871 168.6095
1917.516352 96.888 168.7731
1931.411466 96.905 168.9325
1945.407270 96.920 169.0892
1959.504493 96.933 169.2458
1973.703870 96.943 169.4050
1988.006142 96.950 169.5687
2002.412054 96.953 169.7384
2016.922357 96.951 169.9147
2031.537808 96.944 170.0975
2046.259169 96.931 170.2855
2061.087206 96.913 170.4756
2076.022694 96.889 170.6639
2091.066410 96.859 170.8456
2106.219139 96.824 171.0169
2121.481671 96.783 171.1754
2136.854802 96.737 171.3213
2152.339333 96.686 171.4569
2167.936071 96.631 171.5859
2183.645829 96.573 171.7123
2199.469427 96.514 171.8391
2215.407689 96.456 171.9682
2231.461446 96.400 172.0998
2247.631536 96.347 172.2324
2263.918800 96.298 172.3633
2280.324089 96.254 172.4892
2296.848258 96.215 172.6065
2313.492167 96.181 172.7128
2330.256685 96.150 172.8066
2347.142685 96.122 172.8880
2364.151049 96.097 172.9581
2381.282662 96.073 173.0182
2398.538418 96.051 173.0700
2415.919216 96.030 173.1155
2433.425962 96.009 173.1573
2451.059570 95.990 173.1975
2468.820958 95.972 173.2378
2486.711052 95.955 173.2786
2504.730786 95.941 173.3195
2522.881098 95.930 173.3598
2541.162934 95.922 173.3993
2559.577248 95.919 173.4383
2578.125000 95.920 173.4781
2596.807157 95.926 173.5203
2615.624692 95.939 173.5668
2634.578586 95.960 173.6196
2653.669829 95.989 173.6797
2672.899414 96.028 173.7481
2692.268345 96.077 173.8254
2711.777632 96.135 173.9127
2731.428290 96.204 174.0115
2751.221345 96.281 174.1236
2771.157829 96.367 174.2502
2791.238781 96.461 174.3919
2811.465248 96.561 174.5483
2831.838284 96.666 174.7181
2852.358952 96.773 174.8990
2873.028321 96.883 175.0876
2893.847468 96.992 175.2802
2914.817480 97.100 175.4716
2935.939449 97.205 175.6563
2957.214476 97.305 175.8281
2978.643672 97.399 175.9810
3000.228152 97.486 176.1105
3021.969041 97.566 176.2139
3043.867475 97.636 176.2907
3065.924593 97.697 176.3422
3088.141547 97.749 176.3709
3110.519493 97.793 176.3800
3133.059600 97.828 176.3729
3155.763041 97.855 176.3528
3178.631001 97.876 176.3226
3201.664672 97.892 176.2843
3224.865254 97.903 176.2391
3248.233957 97.912 176.1870
3271.771999 97.917 176.1266
3295.480608 97.920 176.0565
3319.361019 97.922 175.9755
3343.414477 97.921 175.8837
3367.642236 97.919 175.7819
3392.045560 97.915 175.6721
3416.625721 97.909 175.5569
3441.383999 97.901 175.4398
3466.321686 97.891 175.3247
3491.440082 97.882 175.2158
3516.740496 97.872 175.1169
3542.224247 97.864 175.0305
3567.892664 97.859 174.9581
3593.747085 97.858 174.8999
3619.788858 97.862 174.8551
3646.019340 97.872 174.8220
3672.439900 97.889 174.7982
3699.051913 97.912 174.7811
3725.856768 97.943 174.7679
3752.855862 97.982 174.7564
3780.050603 98.027 174.7447
3807.442408 98.079 174.7313
3835.032705 98.137 174.7143
3862.822933 98.202 174.6920
3890.814540 98.271 174.6623
3919.008986 98.345 174.6231
3947.407741 98.424 174.5724
3976.012284 98.506 174.5082
4004.824108 98.591 174.4283
4033.844715 98.677 174.3303
4063.075616 98.766 174.2115
4092.518337 98.855 174.0692
4122.174412 98.944 173.9004
4152.045387 99.033 173.7024
4182.132820 99.120 173.4726
4212.438278 99.205 173.2092
4242.963342 99.287 172.9109
4273.709604 99.365 172.5769
4304.678665 99.439 172.2071
4335.872141 99.506 171.8022
4367.291658 99.567 171.3638
4398.938854 99.619 170.8949
4430.815378 99.663 170.3992
4462.922893 99.697 169.8811
4495.263072 99.721 169.3453
4527.837601 99.733 168.7966
4560.648179 99.733 168.2397
4593.696515 99.722 167.6794
4626.984334 99.699 167.1198
4660.513370 99.665 166.5645
4694.285371 99.620 166.0164
4728.302098 99.566 165.4776
4762.565324 99.503 164.9487
4797.076835 99.433 164.4295
4831.838432 99.358 163.9188
4866.851925 99.279 163.4142
4902.119140 99.198 162.9120
4937.641916 99.115 162.4077
4973.422105 99.033 161.8956
5009.461572 98.951 161.3698
5045.762195 98.870 160.8243
5082.325868 98.790 160.2536
5119.154496 98.711 159.6534
5156.250000 98.630 159.0203
5193.614313 98.549 158.3524
5231.249383 98.463 157.6487
5269.157173 98.373 156.9106
5307.339658 98.276 156.1407
5345.798829 98.171 155.3440
5384.536691 98.054 154.5272
5423.555263 97.925 153.6994
5462.856580 97.781 152.8714
5502.442691 97.622 152.0562
5542.315659 97.446 151.2683
5582.477563 97.252 150.5241
5622.930497 97.041 149.8411
5663.676569 96.813 149.2379
5704.717904 96.569 148.7339
5746.056642 96.311 148.3492
5787.694937 96.041 148.1042
5829.634960 95.761 148.0197
5871.878898 95.475 148.1162
5914.428953 95.186 148.4139
5957.287343 94.900 148.9305
6000.456303 94.620 149.6804
6043.938083 94.353 150.6712
6087.734950 94.105 151.9017
6131.849187 93.881 153.3588
6176.283094 93.685 155.0154
6221.038987 93.522 156.8311
6266.119200 93.393 158.7537
6311.526083 93.298 160.7243
6357.262002 93.236 162.6819
6403.329344 93.203 164.5694
6449.730508 93.194 166.3376
6496.467914 93.203 167.9481
6543.543998 93.225 169.3744
6590.961215 93.254 170.6014
6638.722037 93.285 171.6249
6686.828954 93.313 172.4501
6735.284473 93.333 173.0897
6784.091120 93.343 173.5637
6833.251441 93.338 173.8971
6882.767998 93.317 174.1194
6932.643372 93.279 174.2632
6982.880164 93.224 174.3627
7033.480992 93.151 174.4521
7084.448495 93.062 174.5645
7135.785329 92.960 174.7307
7187.494171 92.847 174.9771
7239.577717 92.726 175.3254
7292.038681 92.602 175.7914
7344.879799 92.478 176.3844
7398.103826 92.356 177.1067
7451.713536 92.242 177.9533
7505.711724 92.136 178.9123
7560.101205 92.041 179.9647
7614.884815 91.959 -178.9148
7670.065409 91.889 -177.7571
7725.645865 91.832 -176.5978
7781.629080 91.785 -175.4753
7838.017972 91.746 -174.4288
7894.815481 91.712 -173.4947
7952.024569 91.679 -172.7037
8009.648217 91.640 -172.0760
8067.689429 91.589 -171.6182
8126.151233 91.520 -171.3194
8185.036674 91.425 -171.1484
8244.348824 91.296 -171.0500
8304.090774 91.129 -170.9433
8364.265639 90.920 -170.7189
8424.876556 90.667 -170.2383
8485.926684 90.376 -169.3366
8547.419207 90.055 -167.8314
8609.357330 89.722 -165.5435
8671.744282 89.402 -162.3352
8734.583316 89.122 -158.1679
8797.877707 88.914 -153.1636
8861.630756 88.806 -147.6292
8925.845785 88.812 -141.9992
8990.526143 88.937 -136.7084
9055.675202 89.169 -132.0718
9121.296357 89.488 -128.2403
9187.393031 89.873 -125.2312
9253.968668 90.299 -122.9855
9321.026740 90.750 -121.4167
9388.570742 91.208 -120.4386
9456.604196 91.663 -119.9785
9525.130648 92.104 -119.9791
9594.153671 92.525 -120.3967
9663.676863 92.919 -121.1972
9733.703850 93.279 -122.3520
9804.238280 93.602 -123.8347
9875.283832 93.882 -125.6181
9946.844210 94.114 -127.6721
10018.923143 94.296 -129.9626
10091.524390 94.424 -132.4506
10164.651736 94.497 -135.0926
10238.308993 94.513 -137.8415
10312.500000 94.473 -140.6483
10387.228626 94.379 -143.4647
10462.498767 94.233 -146.2457
10538.314345 94.041 -148.9519
10614.679315 93.806 -151.5509
10691.597657 93.534 -154.0189
10769.073381 93.231 -156.3404
10847.110526 92.900 -158.5078
10925.713161 92.548 -160.5203
11004.885382 92.176 -162.3823
11084.631318 91.787 -164.1018
11164.955126 91.382 -165.6882
11245.860993 90.963 -167.1507
11327.353138 90.527 -168.4958
11409.435808 90.074 -169.7262
11492.113283 89.603 -170.8391
11575.389873 89.113 -171.8246
11659.269920 88.602 -172.6652
11743.757796 88.070 -173.3350
11828.857906 87.518 -173.7997
11914.574686 86.949 -174.0169
12000.912606 86.365 -173.9376
12087.876166 85.772 -173.5087
12175.469900 85.182 -172.6781
12263.698373 84.605 -171.4026
12352.566187 84.061 -169.6598
12442.077974 83.570 -167.4646
12532.238400 83.158 -164.8865
12623.052165 82.852 -162.0608
12714.524005 82.672 -159.1865
12806.658687 82.632 -156.5023
12899.461015 82.732 -154.2479
12992.935827 82.958 -152.6243
13087.087996 83.289 -151.7683
13181.922430 83.696 -151.7488
13277.444074 84.153 -152.5770
13373.657907 84.638 -154.2243
13470.568945 85.130 -156.6392
13568.182241 85.618 -159.7607
13666.502883 86.090 -163.5269
13765.535996 86.539 -167.8804
13865.286744 86.960 -172.7697
13965.760328 87.346 -178.1484
14066.961984 87.693 176.0265
14168.896989 87.993 169.7975
14271.570658 88.242 163.2107
14374.988342 88.434 156.3172
14479.155433 88.562 149.1758
14584.077362 88.623 141.8531
14689.759598 88.615 134.4215
14796.207652 88.535 126.9571
14903.427072 88.386 119.5354
15011.423448 88.169 112.2280
15120.202410 87.890 105.0999
15229.769630 87.555 98.2060
15340.130819 87.172 91.5890
15451.291730 86.749 85.2773
15563.258160 86.299 79.2830
15676.035944 85.832 73.6019
15789.630962 85.361 68.2138
15904.049137 84.897 63.0853
16019.296433 84.451 58.1735
16135.378859 84.030 53.4309
16252.302465 83.638 48.8109
16370.073348 83.275 44.2726
16488.697648 82.937 39.7849
16608.181548 82.618 35.3289
16728.531278 82.308 30.8995
16849.753112 82.001 26.5038
16971.853368 81.688 22.1595
17094.838414 81.367 17.8899
17218.714660 81.037 13.7172
17343.488565 80.702 9.6542
17469.166632 80.372 5.6965
17595.755415 80.060 1.8158
17723.261512 79.778 -2.0408
17851.691571 79.540 -5.9457
17981.052287 79.353 -9.9813
18111.350404 79.220 -14.2279
18242.592715 79.137 -18.7533
18374.786062 79.097 -23.6069
18507.937336 79.087 -28.8152
18642.053479 79.096 -34.3798
18777.141484 79.115 -40.2738
18913.208391 79.135 -46.4360
19050.261296 79.148 -52.7642
19188.307342 79.153 -59.1084
19327.353727 79.149 -65.2695
19467.407699 79.137 -71.0047
19608.476560 79.121 -76.0447
19750.567664 79.103 -80.1195
19893.688419 79.089 -82.9888
20037.846286 79.081 -84.4719
