* Measurement data measured by REW V5.31.3
* Source: EXCL: Headset (USB-C to 3.5mm Headphone Jack Adapter), MICROPHONE (Master Volume), 0, volume: 0.260
* Format: 256k Log Swept Sine, 1 sweep at -12.0 dBFS with no timing reference
* Dated: Feb 9, 2025 9:34:04 PM
* REW Settings:
*  C-weighting compensation: Off
*  Target level: 75.0 dB
* Note: ; 
* Measurement: HD650 (Worn) L2
* Smoothing: 1/6 octave
* Frequency Step: 96 ppo
* Start Frequency: 20.0 Hz
*
* Freq(Hz) SPL(dB) Phase(degrees)
20.141602 90.336 -41.0430
20.287556 90.347 -41.1879
20.434568 90.361 -41.3833
20.582645 90.373 -41.6259
20.731796 90.383 -41.9124
20.882027 90.387 -42.2403
21.033346 90.384 -42.6077
21.185763 90.372 -43.0135
21.339284 90.351 -43.4571
21.493917 90.320 -43.9376
21.649671 90.281 -44.4541
21.806553 90.234 -45.0051
21.964572 90.182 -45.5886
22.123737 90.127 -46.2016
22.284054 90.069 -46.8407
22.445534 90.013 -47.5019
22.608183 89.960 -48.1806
22.772012 89.911 -48.8725
22.937027 89.870 -49.5728
23.103238 89.838 -50.2773
23.270654 89.816 -50.9820
23.439282 89.805 -51.6833
23.609133 89.807 -52.3781
23.780215 89.821 -53.0641
23.952536 89.848 -53.7393
24.126106 89.888 -54.4023
24.300934 89.939 -55.0523
24.477028 90.000 -55.6886
24.654399 90.070 -56.3111
24.833055 90.147 -56.9200
25.013005 90.229 -57.5156
25.194260 90.314 -58.0986
25.376828 90.401 -58.6695
25.560719 90.488 -59.2295
25.745942 90.573 -59.7797
25.932508 90.655 -60.3215
26.120426 90.734 -60.8566
26.309705 90.808 -61.3870
26.500356 90.878 -61.9147
26.692388 90.944 -62.4420
26.885812 91.005 -62.9708
27.080638 91.063 -63.5032
27.276876 91.116 -64.0405
27.474535 91.167 -64.5838
27.673627 91.217 -65.1334
27.874161 91.266 -65.6894
28.076149 91.317 -66.2510
28.279600 91.371 -66.8173
28.484526 91.432 -67.3873
28.690937 91.503 -67.9598
28.898843 91.584 -68.5336
29.108256 91.680 -69.1075
29.319186 91.790 -69.6806
29.531645 91.916 -70.2517
29.745644 92.056 -70.8196
29.961193 92.209 -71.3830
30.178304 92.373 -71.9405
30.396989 92.543 -72.4909
30.617258 92.715 -73.0336
30.839123 92.885 -73.5682
31.062596 93.047 -74.0953
31.287688 93.197 -74.6162
31.514412 93.330 -75.1328
31.742778 93.443 -75.6474
31.972800 93.532 -76.1621
32.204488 93.593 -76.6789
32.437855 93.626 -77.1990
32.672913 93.629 -77.7231
32.909674 93.604 -78.2511
33.148151 93.551 -78.7827
33.388356 93.472 -79.3175
33.630302 93.372 -79.8551
33.874001 93.253 -80.3954
34.119466 93.121 -80.9381
34.366710 92.980 -81.4829
34.615745 92.834 -82.0290
34.866585 92.689 -82.5747
35.119243 92.548 -83.1177
35.373731 92.415 -83.6554
35.630064 92.294 -84.1853
35.888254 92.188 -84.7055
36.148315 92.098 -85.2155
36.410261 92.027 -85.7164
36.674104 91.976 -86.2107
36.939860 91.946 -86.7023
37.207542 91.937 -87.1955
37.477163 91.950 -87.6944
37.748738 91.985 -88.2020
38.022281 92.040 -88.7201
38.297806 92.116 -89.2489
38.575327 92.211 -89.7868
38.854860 92.326 -90.3314
39.136419 92.460 -90.8791
39.420017 92.612 -91.4264
39.705671 92.781 -91.9697
39.993395 92.967 -92.5056
40.283203 93.167 -93.0317
40.575112 93.382 -93.5465
40.869136 93.608 -94.0495
41.165290 93.846 -94.5414
41.463591 94.092 -95.0237
41.764053 94.344 -95.4989
42.066693 94.601 -95.9693
42.371525 94.861 -96.4373
42.678567 95.120 -96.9048
42.987834 95.376 -97.3728
43.299341 95.627 -97.8416
43.613106 95.871 -98.3114
43.929145 96.106 -98.7819
44.247473 96.329 -99.2528
44.568109 96.539 -99.7243
44.891068 96.735 -100.1961
45.216367 96.915 -100.6684
45.544023 97.078 -101.1409
45.874054 97.225 -101.6132
46.206476 97.354 -102.0849
46.541307 97.465 -102.5553
46.878565 97.560 -103.0238
47.218266 97.639 -103.4897
47.560429 97.701 -103.9522
47.905072 97.749 -104.4106
48.252212 97.783 -104.8646
48.601867 97.805 -105.3138
48.954056 97.815 -105.7584
49.308798 97.816 -106.1988
49.666109 97.810 -106.6358
50.026010 97.797 -107.0702
50.388520 97.780 -107.5026
50.753656 97.761 -107.9337
51.121437 97.741 -108.3637
51.491884 97.722 -108.7929
51.865016 97.705 -109.2216
52.240851 97.691 -109.6501
52.619410 97.681 -110.0785
53.000712 97.675 -110.5071
53.384777 97.673 -110.9360
53.771625 97.675 -111.3653
54.161276 97.678 -111.7953
54.553751 97.684 -112.2262
54.949070 97.690 -112.6587
55.347254 97.697 -113.0931
55.748323 97.702 -113.5302
56.152298 97.705 -113.9704
56.559201 97.706 -114.4138
56.969052 97.704 -114.8603
57.381873 97.698 -115.3091
57.797686 97.689 -115.7588
58.216512 97.677 -116.2076
58.638373 97.662 -116.6534
59.063291 97.645 -117.0945
59.491288 97.627 -117.5296
59.922386 97.607 -117.9592
60.356608 97.588 -118.3844
60.793977 97.569 -118.8079
61.234515 97.551 -119.2320
61.678246 97.534 -119.6587
62.125192 97.518 -120.0890
62.575377 97.502 -120.5231
63.028824 97.487 -120.9604
63.485557 97.473 -121.4003
63.945599 97.461 -121.8421
64.408975 97.450 -122.2853
64.875709 97.440 -122.7298
65.345825 97.433 -123.1753
65.819348 97.429 -123.6222
66.296302 97.426 -124.0705
66.776713 97.427 -124.5205
67.260604 97.430 -124.9720
67.748002 97.435 -125.4248
68.238932 97.443 -125.8781
68.733420 97.453 -126.3313
69.231490 97.466 -126.7835
69.733170 97.480 -127.2340
70.238485 97.496 -127.6824
70.747463 97.514 -128.1285
71.260128 97.532 -128.5725
71.776508 97.552 -129.0146
72.296630 97.573 -129.4553
72.820521 97.594 -129.8949
73.348209 97.615 -130.3337
73.879720 97.637 -130.7720
74.415083 97.660 -131.2098
74.954326 97.682 -131.6469
75.497475 97.703 -132.0830
76.044561 97.724 -132.5177
76.595612 97.744 -132.9506
77.150655 97.762 -133.3812
77.709720 97.779 -133.8093
78.272837 97.793 -134.2346
78.840034 97.804 -134.6573
79.411342 97.811 -135.0773
79.986789 97.816 -135.4946
80.566406 97.816 -135.9091
81.150224 97.813 -136.3207
81.738272 97.807 -136.7292
82.330581 97.798 -137.1344
82.927182 97.787 -137.5364
83.528107 97.776 -137.9351
84.133386 97.767 -138.3304
84.743051 97.762 -138.7227
85.357134 97.764 -139.1120
85.975667 97.776 -139.4985
86.598682 97.801 -139.8824
87.226212 97.843 -140.2638
87.858289 97.904 -140.6429
88.494946 97.988 -141.0201
89.136217 98.096 -141.3954
89.782135 98.228 -141.7692
90.432733 98.383 -142.1414
91.088046 98.559 -142.5123
91.748108 98.752 -142.8818
92.412952 98.957 -143.2496
93.082615 99.168 -143.6155
93.757130 99.381 -143.9787
94.436533 99.590 -144.3390
95.120859 99.790 -144.6958
95.810144 99.977 -145.0491
96.504423 100.149 -145.3991
97.203734 100.304 -145.7460
97.908112 100.442 -146.0903
98.617595 100.562 -146.4327
99.332219 100.665 -146.7737
100.052021 100.755 -147.1138
100.777039 100.831 -147.4533
101.507311 100.898 -147.7924
102.242875 100.956 -148.1310
102.983769 101.008 -148.4691
103.730032 101.054 -148.8065
104.481702 101.095 -149.1431
105.238820 101.131 -149.4787
106.001424 101.162 -149.8135
106.769554 101.185 -150.1476
107.543250 101.201 -150.4814
108.322553 101.206 -150.8150
109.107503 101.200 -151.1486
109.898141 101.181 -151.4820
110.694508 101.148 -151.8152
111.496646 101.102 -152.1479
112.304596 101.042 -152.4803
113.118402 100.971 -152.8125
113.938104 100.889 -153.1447
114.763747 100.799 -153.4773
115.595372 100.703 -153.8104
116.433024 100.603 -154.1440
117.276746 100.503 -154.4780
118.126581 100.403 -154.8121
118.982575 100.305 -155.1458
119.844772 100.210 -155.4788
120.713217 100.117 -155.8106
121.587954 100.028 -156.1408
122.469031 99.941 -156.4690
123.356492 99.854 -156.7950
124.250384 99.767 -157.1186
125.150753 99.677 -157.4395
126.057647 99.584 -157.7576
126.971113 99.485 -158.0727
127.891198 99.380 -158.3844
128.817950 99.268 -158.6926
129.751418 99.150 -158.9971
130.691651 99.024 -159.2980
131.638696 98.893 -159.5957
132.592604 98.759 -159.8905
133.553425 98.622 -160.1828
134.521208 98.487 -160.4725
135.496004 98.356 -160.7600
136.477864 98.233 -161.0450
137.466839 98.122 -161.3276
138.462981 98.025 -161.6078
139.466340 97.945 -161.8857
140.476971 97.884 -162.1615
141.494925 97.842 -162.4354
142.520256 97.818 -162.7076
143.553016 97.811 -162.9780
144.593260 97.817 -163.2470
145.641043 97.833 -163.5146
146.696418 97.854 -163.7811
147.759441 97.877 -164.0467
148.830166 97.898 -164.3116
149.908651 97.915 -164.5761
150.994951 97.925 -164.8404
152.089123 97.929 -165.1047
153.191223 97.924 -165.3690
154.301310 97.913 -165.6334
155.419441 97.897 -165.8979
156.545674 97.876 -166.1624
157.680069 97.854 -166.4269
158.822683 97.831 -166.6911
159.973578 97.809 -166.9548
161.132813 97.788 -167.2178
162.300447 97.771 -167.4802
163.476543 97.756 -167.7417
164.661162 97.745 -168.0025
165.854364 97.737 -168.2625
167.056213 97.733 -168.5220
168.266772 97.733 -168.7810
169.486102 97.736 -169.0395
170.714268 97.744 -169.2976
171.951334 97.756 -169.5550
173.197364 97.772 -169.8116
174.452424 97.792 -170.0672
175.716578 97.816 -170.3214
176.989893 97.844 -170.5739
178.272434 97.873 -170.8247
179.564270 97.904 -171.0735
180.865467 97.935 -171.3204
182.176092 97.966 -171.5651
183.496216 97.994 -171.8078
184.825905 98.019 -172.0482
186.165229 98.042 -172.2865
187.514259 98.060 -172.5224
188.873065 98.076 -172.7558
190.241717 98.089 -172.9869
191.620287 98.100 -173.2156
193.008847 98.109 -173.4422
194.407468 98.117 -173.6671
195.816225 98.125 -173.8904
197.235190 98.133 -174.1124
198.664438 98.140 -174.3330
200.104042 98.146 -174.5517
201.554078 98.151 -174.7683
203.014622 98.154 -174.9820
204.485750 98.155 -175.1925
205.967538 98.153 -175.3996
207.460064 98.147 -175.6033
208.963405 98.138 -175.8037
210.477640 98.125 -176.0012
212.002848 98.109 -176.1960
213.539108 98.091 -176.3884
215.086500 98.069 -176.5788
216.645105 98.046 -176.7672
218.215005 98.021 -176.9540
219.796281 97.994 -177.1392
221.389015 97.964 -177.3230
222.993292 97.933 -177.5054
224.609193 97.898 -177.6865
226.236804 97.860 -177.8664
227.876209 97.817 -178.0451
229.527494 97.769 -178.2226
231.190745 97.716 -178.3993
232.866048 97.658 -178.5753
234.553491 97.594 -178.7506
236.253163 97.525 -178.9255
237.965150 97.453 -179.0998
239.689544 97.377 -179.2735
241.426433 97.299 -179.4462
243.175909 97.219 -179.6178
244.938062 97.139 -179.7880
246.712984 97.059 -179.9564
248.500768 96.981 179.8773
250.301507 96.905 179.7134
252.115295 96.832 179.5522
253.942226 96.762 179.3945
255.782396 96.695 179.2407
257.635901 96.634 179.0915
259.502837 96.577 178.9476
261.383301 96.526 178.8097
263.277392 96.481 178.6786
265.185209 96.442 178.5551
267.106850 96.409 178.4399
269.042417 96.381 178.3339
270.992009 96.360 178.2374
272.955729 96.345 178.1508
274.933678 96.335 178.0740
276.925961 96.329 178.0066
278.932681 96.328 177.9476
280.953942 96.331 177.8957
282.989850 96.338 177.8492
285.040511 96.349 177.8061
287.106032 96.364 177.7646
289.186521 96.383 177.7230
291.282086 96.408 177.6796
293.392836 96.440 177.6332
295.518881 96.477 177.5829
297.660333 96.522 177.5284
299.817302 96.572 177.4694
301.989902 96.628 177.4059
304.178245 96.687 177.3383
306.382446 96.749 177.2667
308.602620 96.811 177.1917
310.838882 96.871 177.1137
313.091348 96.927 177.0333
315.360137 96.979 176.9512
317.645367 97.023 176.8679
319.947156 97.060 176.7839
322.265625 97.089 176.6996
324.600895 97.108 176.6152
326.953086 97.117 176.5312
329.322323 97.115 176.4475
331.708729 97.104 176.3644
334.112427 97.081 176.2819
336.533543 97.048 176.2002
338.972204 97.005 176.1193
341.428536 96.952 176.0395
343.902668 96.891 175.9610
346.394729 96.823 175.8839
348.904848 96.749 175.8085
351.433156 96.671 175.7349
353.979786 96.591 175.6633
356.544869 96.513 175.5938
359.128540 96.438 175.5264
361.730934 96.369 175.4610
364.352185 96.310 175.3977
366.992431 96.264 175.3363
369.651810 96.231 175.2766
372.330459 96.216 175.2183
375.028519 96.218 175.1614
377.746130 96.238 175.1056
380.483434 96.275 175.0508
383.240574 96.328 174.9969
386.017693 96.395 174.9437
388.814937 96.474 174.8913
391.632450 96.560 174.8395
394.470380 96.653 174.7883
397.328875 96.749 174.7376
400.208084 96.845 174.6874
403.108157 96.941 174.6378
406.029245 97.034 174.5887
408.971500 97.124 174.5402
411.935076 97.211 174.4921
414.920127 97.294 174.4448
417.926810 97.375 174.3983
420.955280 97.454 174.3528
424.005695 97.532 174.3087
427.078215 97.608 174.2660
430.173000 97.685 174.2251
433.290211 97.763 174.1862
436.430010 97.840 174.1492
439.592562 97.917 174.1143
442.778031 97.993 174.0811
445.986583 98.066 174.0497
449.218386 98.135 174.0195
452.473607 98.198 173.9905
455.752418 98.255 173.9623
459.054987 98.303 173.9347
462.381489 98.341 173.9077
465.732096 98.369 173.8814
469.106983 98.386 173.8559
472.506325 98.393 173.8313
475.930301 98.390 173.8078
479.379088 98.379 173.7856
482.852867 98.359 173.7647
486.351817 98.332 173.7453
489.876123 98.299 173.7274
493.425968 98.261 173.7113
497.001536 98.219 173.6971
500.603014 98.174 173.6848
504.230589 98.126 173.6746
507.884452 98.074 173.6662
511.564792 98.020 173.6598
515.271802 97.964 173.6552
519.005673 97.905 173.6523
522.766602 97.845 173.6509
526.554785 97.786 173.6507
530.370418 97.728 173.6516
534.213700 97.673 173.6534
538.084833 97.624 173.6559
541.984018 97.582 173.6590
545.911457 97.548 173.6626
549.867357 97.524 173.6667
553.851922 97.510 173.6710
557.865362 97.504 173.6753
561.907884 97.506 173.6795
565.979700 97.513 173.6833
570.081022 97.525 173.6868
574.212064 97.538 173.6901
578.373042 97.551 173.6935
582.564171 97.562 173.6974
586.785671 97.569 173.7025
591.037762 97.570 173.7088
595.320665 97.565 173.7167
599.634604 97.554 173.7262
603.979804 97.535 173.7373
608.356491 97.510 173.7499
612.764893 97.479 173.7639
617.205240 97.442 173.7790
621.677763 97.400 173.7951
626.182696 97.356 173.8118
630.720274 97.310 173.8286
635.290733 97.265 173.8449
639.894312 97.223 173.8601
644.531250 97.184 173.8735
649.201789 97.152 173.8850
653.906173 97.126 173.8945
658.644647 97.107 173.9022
663.417457 97.096 173.9086
668.224854 97.091 173.9141
673.067086 97.092 173.9192
677.944408 97.097 173.9245
682.857073 97.104 173.9301
687.805336 97.113 173.9362
692.789457 97.122 173.9425
697.809695 97.129 173.9487
702.866312 97.133 173.9539
707.959571 97.134 173.9572
713.089738 97.130 173.9574
718.257080 97.123 173.9533
723.461867 97.111 173.9437
728.704370 97.094 173.9280
733.984862 97.073 173.9056
739.303619 97.049 173.8767
744.660918 97.021 173.8416
750.057038 96.990 173.8018
755.492260 96.956 173.7593
760.966869 96.918 173.7176
766.481148 96.878 173.6813
772.035387 96.833 173.6566
777.629873 96.784 173.6503
783.264900 96.730 173.6698
788.940760 96.672 173.7214
794.657750 96.610 173.8085
800.416168 96.546 173.9301
806.216313 96.480 174.0790
812.058489 96.412 174.2439
817.943000 96.344 174.4111
823.870152 96.276 174.5682
829.840255 96.206 174.7060
835.853619 96.134 174.8190
841.910559 96.061 174.9050
848.011390 95.986 174.9642
854.156430 95.909 174.9990
860.346000 95.830 175.0122
866.580422 95.752 175.0073
872.860020 95.673 174.9875
879.185124 95.596 174.9554
885.556062 95.522 174.9131
891.973166 95.451 174.8619
898.436771 95.384 174.8029
904.947215 95.324 174.7365
911.504835 95.270 174.6629
918.109975 95.224 174.5823
924.762978 95.186 174.4944
931.464192 95.156 174.3991
938.213966 95.135 174.2965
945.012651 95.121 174.1872
951.860602 95.115 174.0725
958.758176 95.114 173.9547
965.705733 95.119 173.8364
972.703635 95.129 173.7206
979.752246 95.141 173.6111
986.851935 95.156 173.5118
994.003071 95.173 173.4276
1001.206027 95.193 173.3640
1008.461179 95.214 173.3268
1015.768904 95.240 173.3215
1023.129584 95.270 173.3523
1030.543603 95.308 173.4209
1038.011347 95.355 173.5259
1045.533205 95.414 173.6622
1053.109569 95.485 173.8217
1060.740836 95.570 173.9941
1068.427401 95.667 174.1689
1076.169666 95.777 174.3362
1083.968035 95.896 174.4877
1091.822915 96.022 174.6176
1099.734713 96.153 174.7226
1107.703844 96.285 174.8016
1115.730723 96.415 174.8553
1123.815768 96.542 174.8853
1131.959400 96.664 174.8934
1140.162045 96.780 174.8816
1148.424129 96.888 174.8517
1156.746083 96.990 174.8054
1165.128342 97.084 174.7440
1173.571343 97.172 174.6690
1182.075524 97.255 174.5820
1190.641331 97.335 174.4847
1199.269209 97.410 174.3790
1207.959608 97.484 174.2669
1216.712981 97.557 174.1501
1225.529785 97.628 174.0300
1234.410479 97.697 173.9079
1243.355526 97.766 173.7846
1252.365393 97.832 173.6613
1261.440549 97.895 173.5395
1270.581467 97.955 173.4204
1279.788624 98.012 173.3055
1289.062500 98.064 173.1962
1298.403578 98.112 173.0930
1307.812346 98.156 172.9965
1317.289293 98.197 172.9060
1326.834914 98.234 172.8205
1336.449707 98.269 172.7383
1346.134173 98.302 172.6578
1355.888816 98.332 172.5773
1365.714145 98.361 172.4952
1375.610673 98.387 172.4104
1385.578915 98.411 172.3215
1395.619391 98.433 172.2274
1405.732624 98.452 172.1275
1415.919142 98.468 172.0217
1426.179476 98.481 171.9106
1436.514160 98.491 171.7960
1446.923734 98.500 171.6795
1457.408740 98.506 171.5634
1467.969724 98.512 171.4499
1478.607238 98.518 171.3412
1489.321836 98.524 171.2400
1500.114076 98.531 171.1487
1510.984521 98.540 171.0701
1521.933737 98.551 171.0063
1532.962297 98.565 170.9590
1544.070773 98.582 170.9290
1555.259747 98.601 170.9159
1566.529800 98.624 170.9181
1577.881521 98.649 170.9333
1589.315501 98.677 170.9584
1600.832336 98.708 170.9901
1612.432627 98.739 171.0247
1624.116978 98.772 171.0587
1635.886000 98.806 171.0889
1647.740304 98.839 171.1135
1659.680509 98.872 171.1320
1671.707238 98.905 171.1457
1683.821118 98.936 171.1574
1696.022780 98.966 171.1708
1708.312860 98.996 171.1892
1720.692000 99.026 171.2150
1733.160843 99.057 171.2494
1745.720041 99.088 171.2924
1758.370248 99.121 171.3432
1771.112124 99.154 171.4006
1783.946332 99.188 171.4637
1796.873543 99.222 171.5323
1809.894429 99.255 171.6064
1823.009670 99.287 171.6861
1836.219950 99.319 171.7709
1849.525956 99.350 171.8597
1862.928384 99.380 171.9514
1876.427931 99.410 172.0446
1890.025301 99.440 172.1379
1903.721204 99.469 172.2299
1917.516352 99.498 172.3188
1931.411466 99.528 172.4028
1945.407270 99.556 172.4804
1959.504493 99.582 172.5510
1973.703870 99.606 172.6145
1988.006142 99.625 172.6720
2002.412054 99.639 172.7256
2016.922357 99.647 172.7779
2031.537808 99.647 172.8323
2046.259169 99.639 172.8922
2061.087206 99.622 172.9610
2076.022694 99.598 173.0410
2091.066410 99.566 173.1331
2106.219139 99.527 173.2372
2121.481671 99.483 173.3512
2136.854802 99.436 173.4722
2152.339333 99.386 173.5964
2167.936071 99.335 173.7192
2183.645829 99.286 173.8356
2199.469427 99.238 173.9409
2215.407689 99.192 174.0316
2231.461446 99.149 174.1056
2247.631536 99.109 174.1627
2263.918800 99.072 174.2048
2280.324089 99.037 174.2356
2296.848258 99.005 174.2598
2313.492167 98.974 174.2825
2330.256685 98.946 174.3077
2347.142685 98.920 174.3384
2364.151049 98.897 174.3752
2381.282662 98.878 174.4167
2398.538418 98.862 174.4595
2415.919216 98.850 174.4991
2433.425962 98.841 174.5302
2451.059570 98.837 174.5482
2468.820958 98.836 174.5494
2486.711052 98.838 174.5322
2504.730786 98.842 174.4963
2522.881098 98.849 174.4438
2541.162934 98.859 174.3784
2559.577248 98.871 174.3046
2578.125000 98.887 174.2267
2596.807157 98.908 174.1483
2615.624692 98.936 174.0720
2634.578586 98.971 173.9985
2653.669829 99.015 173.9270
2672.899414 99.068 173.8553
2692.268345 99.131 173.7810
2711.777632 99.204 173.7014
2731.428290 99.286 173.6146
2751.221345 99.375 173.5202
2771.157829 99.470 173.4193
2791.238781 99.569 173.3140
2811.465248 99.669 173.2076
2831.838284 99.770 173.1036
2852.358952 99.868 173.0059
2873.028321 99.963 172.9176
2893.847468 100.052 172.8419
2914.817480 100.135 172.7812
2935.939449 100.211 172.7377
2957.214476 100.278 172.7127
2978.643672 100.337 172.7070
3000.228152 100.388 172.7209
3021.969041 100.430 172.7534
3043.867475 100.466 172.8024
3065.924593 100.494 172.8646
3088.141547 100.518 172.9353
3110.519493 100.537 173.0093
3133.059600 100.552 173.0811
3155.763041 100.564 173.1451
3178.631001 100.575 173.1961
3201.664672 100.583 173.2296
3224.865254 100.590 173.2417
3248.233957 100.596 173.2296
3271.771999 100.600 173.1916
3295.480608 100.603 173.1269
3319.361019 100.603 173.0359
3343.414477 100.601 172.9202
3367.642236 100.596 172.7827
3392.045560 100.588 172.6271
3416.625721 100.576 172.4580
3441.383999 100.561 172.2804
3466.321686 100.543 172.0995
3491.440082 100.521 171.9200
3516.740496 100.498 171.7467
3542.224247 100.474 171.5834
3567.892664 100.449 171.4339
3593.747085 100.423 171.3019
3619.788858 100.399 171.1913
3646.019340 100.376 171.1068
3672.439900 100.355 171.0530
3699.051913 100.338 171.0349
3725.856768 100.324 171.0568
3752.855862 100.314 171.1221
3780.050603 100.310 171.2328
3807.442408 100.313 171.3893
3835.032705 100.323 171.5904
3862.822933 100.341 171.8336
3890.814540 100.367 172.1157
3919.008986 100.401 172.4334
3947.407741 100.444 172.7837
3976.012284 100.495 173.1638
4004.824108 100.555 173.5711
4033.844715 100.623 174.0023
4063.075616 100.700 174.4528
4092.518337 100.786 174.9163
4122.174412 100.882 175.3840
4152.045387 100.987 175.8459
4182.132820 101.102 176.2902
4212.438278 101.225 176.7049
4242.963342 101.357 177.0788
4273.709604 101.494 177.4017
4304.678665 101.638 177.6649
4335.872141 101.785 177.8612
4367.291658 101.934 177.9846
4398.938854 102.083 178.0298
4430.815378 102.232 177.9933
4462.922893 102.376 177.8725
4495.263072 102.515 177.6672
4527.837601 102.647 177.3790
4560.648179 102.769 177.0116
4593.696515 102.882 176.5698
4626.984334 102.983 176.0591
4660.513370 103.074 175.4850
4694.285371 103.153 174.8527
4728.302098 103.220 174.1666
4762.565324 103.278 173.4305
4797.076835 103.325 172.6481
4831.838432 103.364 171.8221
4866.851925 103.394 170.9551
4902.119140 103.417 170.0486
4937.641916 103.433 169.1031
4973.422105 103.443 168.1188
5009.461572 103.448 167.0952
5045.762195 103.447 166.0319
5082.325868 103.440 164.9288
5119.154496 103.427 163.7862
5156.250000 103.407 162.6053
5193.614313 103.379 161.3880
5231.249383 103.341 160.1372
5269.157173 103.292 158.8568
5307.339658 103.231 157.5524
5345.798829 103.156 156.2307
5384.536691 103.066 154.9003
5423.555263 102.959 153.5713
5462.856580 102.834 152.2550
5502.442691 102.690 150.9632
5542.315659 102.528 149.7083
5582.477563 102.347 148.5027
5622.930497 102.148 147.3592
5663.676569 101.931 146.2901
5704.717904 101.697 145.3080
5746.056642 101.448 144.4254
5787.694937 101.185 143.6552
5829.634960 100.911 143.0104
5871.878898 100.626 142.5044
5914.428953 100.333 142.1514
5957.287343 100.034 141.9657
6000.456303 99.731 141.9630
6043.938083 99.427 142.1597
6087.734950 99.124 142.5732
6131.849187 98.824 143.2208
6176.283094 98.530 144.1175
6221.038987 98.246 145.2740
6266.119200 97.977 146.6939
6311.526083 97.725 148.3713
6357.262002 97.495 150.2895
6403.329344 97.291 152.4207
6449.730508 97.116 154.7270
6496.467914 96.972 157.1629
6543.543998 96.862 159.6788
6590.961215 96.787 162.2244
6638.722037 96.748 164.7511
6686.828954 96.744 167.2136
6735.284473 96.777 169.5705
6784.091120 96.845 171.7836
6833.251441 96.948 173.8182
6882.767998 97.083 175.6428
6932.643372 97.247 177.2300
6982.880164 97.437 178.5577
7033.480992 97.647 179.6097
7084.448495 97.871 -179.6230
7135.785329 98.104 -179.1428
7187.494171 98.339 -178.9452
7239.577717 98.570 -179.0204
7292.038681 98.791 -179.3541
7344.879799 98.996 -179.9286
7398.103826 99.181 179.2759
7451.713536 99.339 178.2810
7505.711724 99.467 177.1100
7560.101205 99.560 175.7875
7614.884815 99.614 174.3404
7670.065409 99.626 172.7980
7725.645865 99.591 171.1932
7781.629080 99.507 169.5641
7838.017972 99.370 167.9547
7894.815481 99.178 166.4178
7952.024569 98.930 165.0172
8009.648217 98.625 163.8309
8067.689429 98.264 162.9559
8126.151233 97.849 162.5123
8185.036674 97.386 162.6483
8244.348824 96.884 163.5418
8304.090774 96.357 165.3942
8364.265639 95.826 168.4059
8424.876556 95.316 172.7180
8485.926684 94.861 178.3137
8547.419207 94.492 -175.0851
8609.357330 94.238 -168.0299
8671.744282 94.117 -161.1877
8734.583316 94.128 -155.0963
8797.877707 94.259 -150.0229
8861.630756 94.487 -145.9894
8925.845785 94.790 -142.8792
8990.526143 95.143 -140.5301
9055.675202 95.528 -138.7887
9121.296357 95.933 -137.5300
9187.393031 96.346 -136.6615
9253.968668 96.761 -136.1190
9321.026740 97.171 -135.8608
9388.570742 97.573 -135.8619
9456.604196 97.961 -136.1085
9525.130648 98.333 -136.5939
9594.153671 98.684 -137.3148
9663.676863 99.010 -138.2689
9733.703850 99.309 -139.4520
9804.238280 99.576 -140.8573
9875.283832 99.809 -142.4738
9946.844210 100.005 -144.2863
10018.923143 100.162 -146.2748
10091.524390 100.278 -148.4145
10164.651736 100.352 -150.6766
10238.308993 100.384 -153.0289
10312.500000 100.373 -155.4364
10387.228626 100.322 -157.8631
10462.498767 100.232 -160.2732
10538.314345 100.106 -162.6329
10614.679315 99.947 -164.9123
10691.597657 99.760 -167.0863
10769.073381 99.548 -169.1366
10847.110526 99.317 -171.0524
10925.713161 99.071 -172.8315
11004.885382 98.814 -174.4802
11084.631318 98.549 -176.0131
11164.955126 98.280 -177.4520
11245.860993 98.008 -178.8236
11327.353138 97.733 179.8428
11409.435808 97.455 178.5192
11492.113283 97.172 177.1818
11575.389873 96.882 175.8140
11659.269920 96.582 174.4078
11743.757796 96.271 172.9643
11828.857906 95.945 171.4915
11914.574686 95.607 170.0004
12000.912606 95.256 168.5003
12087.876166 94.898 166.9940
12175.469900 94.536 165.4738
12263.698373 94.177 163.9205
12352.566187 93.824 162.3037
12442.077974 93.481 160.5850
12532.238400 93.150 158.7221
12623.052165 92.830 156.6741
12714.524005 92.515 154.4061
12806.658687 92.200 151.8925
12899.461015 91.877 149.1193
12992.935827 91.536 146.0837
13087.087996 91.169 142.7917
13181.922430 90.769 139.2544
13277.444074 90.331 135.4818
13373.657907 89.854 131.4769
13470.568945 89.338 127.2289
13568.182241 88.786 122.7069
13666.502883 88.206 117.8547
13765.535996 87.607 112.5851
13865.286744 86.998 106.7745
13965.760328 86.393 100.2555
14066.961984 85.805 92.8079
14168.896989 85.249 84.1492
14271.570658 84.736 73.9370
14374.988342 84.275 61.8122
14479.155433 83.870 47.5440
14584.077362 83.519 31.3179
14689.759598 83.213 14.0011
14796.207652 82.939 -3.0417
14903.427072 82.677 -18.6284
15011.423448 82.410 -32.2253
15120.202410 82.119 -43.8383
15229.769630 81.790 -53.6973
15340.130819 81.412 -62.0482
15451.291730 80.979 -69.0761
15563.258160 80.490 -74.8971
15676.035944 79.949 -79.5732
15789.630962 79.365 -83.1329
15904.049137 78.754 -85.5955
16019.296433 78.139 -86.9984
16135.378859 77.547 -87.4292
16252.302465 77.012 -87.0544
16370.073348 76.570 -86.1288
16488.697648 76.250 -84.9712
16608.181548 76.069 -83.9064
16728.531278 76.027 -83.2002
16849.753112 76.108 -83.0175
16971.853368 76.286 -83.4166
17094.838414 76.536 -84.3710
17218.714660 76.835 -85.7978
17343.488565 77.173 -87.5863
17469.166632 77.544 -89.6205
17595.755415 77.950 -91.8004
17723.261512 78.396 -94.0640
17851.691571 78.883 -96.4113
17981.052287 79.408 -98.9201
18111.350404 79.961 -101.7449
18242.592715 80.522 -105.0866
18374.786062 81.071 -109.1437
18507.937336 81.586 -114.0635
18642.053479 82.046 -119.9158
18777.141484 82.437 -126.6919
18913.208391 82.749 -134.3140
19050.261296 82.977 -142.6409
19188.307342 83.124 -151.4607
19327.353727 83.195 -160.4705
19467.407699 83.204 -169.2554
19608.476560 83.169 -177.2937
19750.567664 83.112 175.9966
19893.688419 83.058 171.1667
20037.846286 83.024 168.6393
