* Measurement data measured by REW V5.31.3
* Source: EXCL: Headset (USB-C to 3.5mm Headphone Jack Adapter), MICROPHONE (Master Volume), 0, volume: 0.260
* Format: 256k Log Swept Sine, 1 sweep at -12.0 dBFS with no timing reference
* Dated: Feb 9, 2025 9:36:28 PM
* REW Settings:
*  C-weighting compensation: Off
*  Target level: 75.0 dB
* Note: ; 
* Measurement: HD650 (Worn) L8
* Smoothing: 1/6 octave
* Frequency Step: 96 ppo
* Start Frequency: 20.0 Hz
*
* Freq(Hz) SPL(dB) Phase(degrees)
20.141602 90.564 -41.7826
20.287556 90.572 -41.9985
20.434568 90.580 -42.2847
20.582645 90.586 -42.6295
20.731796 90.587 -43.0206
20.882027 90.582 -43.4458
21.033346 90.568 -43.8946
21.185763 90.544 -44.3580
21.339284 90.511 -44.8296
21.493917 90.469 -45.3049
21.649671 90.420 -45.7817
21.806553 90.366 -46.2595
21.964572 90.308 -46.7396
22.123737 90.250 -47.2241
22.284054 90.193 -47.7158
22.445534 90.140 -48.2177
22.608183 90.091 -48.7321
22.772012 90.050 -49.2609
22.937027 90.015 -49.8046
23.103238 89.989 -50.3628
23.270654 89.972 -50.9339
23.439282 89.965 -51.5154
23.609133 89.967 -52.1040
23.780215 89.979 -52.6964
23.952536 90.002 -53.2896
24.126106 90.036 -53.8808
24.300934 90.081 -54.4685
24.477028 90.136 -55.0519
24.654399 90.202 -55.6317
24.833055 90.277 -56.2090
25.013005 90.360 -56.7859
25.194260 90.450 -57.3645
25.376828 90.543 -57.9468
25.560719 90.639 -58.5346
25.745942 90.734 -59.1287
25.932508 90.828 -59.7297
26.120426 90.917 -60.3373
26.309705 91.002 -60.9510
26.500356 91.081 -61.5705
26.692388 91.153 -62.1957
26.885812 91.218 -62.8270
27.080638 91.277 -63.4655
27.276876 91.329 -64.1127
27.474535 91.378 -64.7700
27.673627 91.422 -65.4387
27.874161 91.465 -66.1191
28.076149 91.509 -66.8102
28.279600 91.556 -67.5093
28.484526 91.610 -68.2118
28.690937 91.672 -68.9118
28.898843 91.748 -69.6019
29.108256 91.838 -70.2744
29.319186 91.945 -70.9217
29.531645 92.069 -71.5375
29.745644 92.211 -72.1174
29.961193 92.367 -72.6592
30.178304 92.536 -73.1635
30.396989 92.712 -73.6338
30.617258 92.890 -74.0757
30.839123 93.064 -74.4966
31.062596 93.230 -74.9051
31.287688 93.381 -75.3104
31.514412 93.513 -75.7212
31.742778 93.621 -76.1453
31.972800 93.703 -76.5897
32.204488 93.756 -77.0595
32.437855 93.779 -77.5581
32.672913 93.774 -78.0870
32.909674 93.740 -78.6459
33.148151 93.681 -79.2322
33.388356 93.599 -79.8419
33.630302 93.497 -80.4691
33.874001 93.379 -81.1069
34.119466 93.250 -81.7480
34.366710 93.114 -82.3853
34.615745 92.976 -83.0125
34.866585 92.838 -83.6252
35.119243 92.706 -84.2208
35.373731 92.583 -84.7986
35.630064 92.471 -85.3601
35.888254 92.374 -85.9077
36.148315 92.292 -86.4447
36.410261 92.227 -86.9742
36.674104 92.180 -87.4986
36.939860 92.153 -88.0198
37.207542 92.145 -88.5387
37.477163 92.158 -89.0558
37.748738 92.191 -89.5716
38.022281 92.246 -90.0867
38.297806 92.322 -90.6022
38.575327 92.419 -91.1195
38.854860 92.536 -91.6401
39.136419 92.672 -92.1654
39.420017 92.826 -92.6960
39.705671 92.997 -93.2319
39.993395 93.184 -93.7719
40.283203 93.384 -94.3141
40.575112 93.597 -94.8558
40.869136 93.820 -95.3938
41.165290 94.054 -95.9252
41.463591 94.296 -96.4472
41.764053 94.544 -96.9579
42.066693 94.797 -97.4566
42.371525 95.052 -97.9437
42.678567 95.308 -98.4206
42.987834 95.562 -98.8894
43.299341 95.811 -99.3529
43.613106 96.054 -99.8137
43.929145 96.286 -100.2740
44.247473 96.508 -100.7353
44.568109 96.716 -101.1985
44.891068 96.909 -101.6633
45.216367 97.087 -102.1289
45.544023 97.248 -102.5939
45.874054 97.392 -103.0569
46.206476 97.518 -103.5167
46.541307 97.627 -103.9725
46.878565 97.719 -104.4243
47.218266 97.794 -104.8729
47.560429 97.853 -105.3194
47.905072 97.897 -105.7653
48.252212 97.927 -106.2121
48.601867 97.945 -106.6611
48.954056 97.952 -107.1134
49.308798 97.949 -107.5696
49.666109 97.940 -108.0292
50.026010 97.925 -108.4911
50.388520 97.906 -108.9530
50.753656 97.886 -109.4122
51.121437 97.865 -109.8660
51.491884 97.845 -110.3126
51.865016 97.827 -110.7512
52.240851 97.813 -111.1823
52.619410 97.802 -111.6079
53.000712 97.795 -112.0301
53.384777 97.792 -112.4516
53.771625 97.792 -112.8746
54.161276 97.795 -113.3006
54.553751 97.799 -113.7306
54.949070 97.804 -114.1648
55.347254 97.809 -114.6031
55.748323 97.812 -115.0447
56.152298 97.813 -115.4889
56.559201 97.811 -115.9352
56.969052 97.805 -116.3833
57.381873 97.796 -116.8332
57.797686 97.783 -117.2849
58.216512 97.768 -117.7383
58.638373 97.749 -118.1929
59.063291 97.730 -118.6480
59.491288 97.709 -119.1031
59.922386 97.688 -119.5576
60.356608 97.668 -120.0112
60.793977 97.648 -120.4640
61.234515 97.629 -120.9158
61.678246 97.610 -121.3665
62.125192 97.592 -121.8162
62.575377 97.574 -122.2648
63.028824 97.558 -122.7128
63.485557 97.542 -123.1602
63.945599 97.527 -123.6075
64.408975 97.514 -124.0547
64.875709 97.503 -124.5019
65.345825 97.495 -124.9494
65.819348 97.488 -125.3972
66.296302 97.484 -125.8455
66.776713 97.483 -126.2944
67.260604 97.484 -126.7440
67.748002 97.489 -127.1941
68.238932 97.496 -127.6445
68.733420 97.505 -128.0949
69.231490 97.517 -128.5450
69.733170 97.530 -128.9942
70.238485 97.546 -129.4424
70.747463 97.562 -129.8894
71.260128 97.580 -130.3352
71.776508 97.599 -130.7798
72.296630 97.618 -131.2234
72.820521 97.639 -131.6661
73.348209 97.660 -132.1080
73.879720 97.682 -132.5495
74.415083 97.704 -132.9905
74.954326 97.726 -133.4313
75.497475 97.748 -133.8720
76.044561 97.770 -134.3125
76.595612 97.791 -134.7529
77.150655 97.810 -135.1929
77.709720 97.827 -135.6322
78.272837 97.841 -136.0706
78.840034 97.852 -136.5077
79.411342 97.860 -136.9430
79.986789 97.865 -137.3763
80.566406 97.865 -137.8076
81.150224 97.862 -138.2369
81.738272 97.856 -138.6644
82.330581 97.847 -139.0903
82.927182 97.836 -139.5145
83.528107 97.824 -139.9367
84.133386 97.815 -140.3567
84.743051 97.809 -140.7739
85.357134 97.810 -141.1881
85.975667 97.820 -141.5991
86.598682 97.844 -142.0069
87.226212 97.884 -142.4118
87.858289 97.944 -142.8141
88.494946 98.026 -143.2142
89.136217 98.131 -143.6122
89.782135 98.261 -144.0082
90.432733 98.413 -144.4022
91.088046 98.586 -144.7940
91.748108 98.775 -145.1833
92.412952 98.977 -145.5702
93.082615 99.186 -145.9547
93.757130 99.396 -146.3371
94.436533 99.603 -146.7178
95.120859 99.801 -147.0970
95.810144 99.986 -147.4750
96.504423 100.156 -147.8518
97.203734 100.309 -148.2272
97.908112 100.444 -148.6009
98.617595 100.561 -148.9726
99.332219 100.662 -149.3421
100.052021 100.748 -149.7092
100.777039 100.821 -150.0739
101.507311 100.884 -150.4362
102.242875 100.938 -150.7960
102.983769 100.985 -151.1535
103.730032 101.026 -151.5087
104.481702 101.063 -151.8619
105.238820 101.094 -152.2133
106.001424 101.120 -152.5633
106.769554 101.139 -152.9120
107.543250 101.150 -153.2596
108.322553 101.150 -153.6060
109.107503 101.138 -153.9511
109.898141 101.113 -154.2946
110.694508 101.075 -154.6363
111.496646 101.023 -154.9758
112.304596 100.958 -155.3130
113.118402 100.881 -155.6475
113.938104 100.793 -155.9793
114.763747 100.697 -156.3083
115.595372 100.596 -156.6343
116.433024 100.491 -156.9575
117.276746 100.385 -157.2780
118.126581 100.279 -157.5961
118.982575 100.176 -157.9120
119.844772 100.076 -158.2260
120.713217 99.979 -158.5382
121.587954 99.885 -158.8487
122.469031 99.794 -159.1578
123.356492 99.704 -159.4657
124.250384 99.614 -159.7724
125.150753 99.522 -160.0782
126.057647 99.427 -160.3833
126.971113 99.327 -160.6877
127.891198 99.221 -160.9914
128.817950 99.109 -161.2941
129.751418 98.990 -161.5957
130.691651 98.864 -161.8957
131.638696 98.733 -162.1939
132.592604 98.597 -162.4899
133.553425 98.460 -162.7835
134.521208 98.324 -163.0745
135.496004 98.192 -163.3628
136.477864 98.067 -163.6483
137.466839 97.954 -163.9310
138.462981 97.854 -164.2110
139.466340 97.771 -164.4881
140.476971 97.707 -164.7626
141.494925 97.662 -165.0344
142.520256 97.634 -165.3037
143.553016 97.623 -165.5705
144.593260 97.626 -165.8349
145.641043 97.638 -166.0971
146.696418 97.657 -166.3573
147.759441 97.677 -166.6157
148.830166 97.696 -166.8728
149.908651 97.710 -167.1290
150.994951 97.718 -167.3847
152.089123 97.720 -167.6404
153.191223 97.713 -167.8965
154.301310 97.700 -168.1532
155.419441 97.682 -168.4105
156.545674 97.660 -168.6685
157.680069 97.636 -168.9270
158.822683 97.612 -169.1860
159.973578 97.589 -169.4452
161.132813 97.567 -169.7046
162.300447 97.549 -169.9642
163.476543 97.534 -170.2237
164.661162 97.522 -170.4831
165.854364 97.513 -170.7424
167.056213 97.509 -171.0013
168.266772 97.508 -171.2599
169.486102 97.511 -171.5179
170.714268 97.519 -171.7754
171.951334 97.531 -172.0322
173.197364 97.547 -172.2883
174.452424 97.567 -172.5437
175.716578 97.591 -172.7986
176.989893 97.619 -173.0530
178.272434 97.649 -173.3071
179.564270 97.680 -173.5607
180.865467 97.711 -173.8138
182.176092 97.742 -174.0661
183.496216 97.771 -174.3174
184.825905 97.796 -174.5675
186.165229 97.819 -174.8162
187.514259 97.838 -175.0635
188.873065 97.854 -175.3096
190.241717 97.867 -175.5547
191.620287 97.877 -175.7988
193.008847 97.886 -176.0422
194.407468 97.894 -176.2846
195.816225 97.901 -176.5257
197.235190 97.907 -176.7652
198.664438 97.913 -177.0026
200.104042 97.918 -177.2376
201.554078 97.922 -177.4699
203.014622 97.924 -177.6995
204.485750 97.924 -177.9264
205.967538 97.921 -178.1508
207.460064 97.914 -178.3730
208.963405 97.903 -178.5933
210.477640 97.889 -178.8120
212.002848 97.872 -179.0292
213.539108 97.851 -179.2450
215.086500 97.828 -179.4592
216.645105 97.803 -179.6718
218.215005 97.775 -179.8824
219.796281 97.745 179.9090
221.389015 97.713 179.7023
222.993292 97.679 179.4976
224.609193 97.641 179.2943
226.236804 97.599 179.0923
227.876209 97.553 178.8913
229.527494 97.501 178.6911
231.190745 97.444 178.4918
232.866048 97.381 178.2936
234.553491 97.313 178.0968
236.253163 97.239 177.9018
237.965150 97.162 177.7089
239.689544 97.081 177.5185
241.426433 96.997 177.3309
243.175909 96.912 177.1463
244.938062 96.827 176.9651
246.712984 96.742 176.7874
248.500768 96.657 176.6137
250.301507 96.575 176.4442
252.115295 96.496 176.2791
253.942226 96.420 176.1188
255.782396 96.348 175.9638
257.635901 96.281 175.8146
259.502837 96.219 175.6718
261.383301 96.164 175.5361
263.277392 96.114 175.4082
265.185209 96.071 175.2888
267.106850 96.034 175.1788
269.042417 96.004 175.0785
270.992009 95.981 174.9882
272.955729 95.963 174.9076
274.933678 95.951 174.8361
276.925961 95.945 174.7724
278.932681 95.942 174.7151
280.953942 95.944 174.6624
282.989850 95.950 174.6125
285.040511 95.960 174.5634
287.106032 95.975 174.5132
289.186521 95.993 174.4604
291.282086 96.017 174.4032
293.392836 96.047 174.3406
295.518881 96.082 174.2716
297.660333 96.124 174.1959
299.817302 96.172 174.1137
301.989902 96.224 174.0255
304.178245 96.280 173.9320
306.382446 96.337 173.8343
308.602620 96.395 173.7334
310.838882 96.451 173.6306
313.091348 96.503 173.5267
315.360137 96.549 173.4227
317.645367 96.590 173.3193
319.947156 96.622 173.2170
322.265625 96.646 173.1163
324.600895 96.660 173.0174
326.953086 96.664 172.9202
329.322323 96.658 172.8247
331.708729 96.642 172.7308
334.112427 96.615 172.6384
336.533543 96.577 172.5473
338.972204 96.529 172.4577
341.428536 96.472 172.3696
343.902668 96.406 172.2832
346.394729 96.333 172.1987
348.904848 96.254 172.1163
351.433156 96.172 172.0364
353.979786 96.087 171.9589
356.544869 96.004 171.8842
359.128540 95.923 171.8122
361.730934 95.849 171.7432
364.352185 95.785 171.6771
366.992431 95.732 171.6140
369.651810 95.693 171.5536
372.330459 95.671 171.4962
375.028519 95.667 171.4414
377.746130 95.680 171.3893
380.483434 95.711 171.3396
383.240574 95.757 171.2924
386.017693 95.818 171.2474
388.814937 95.890 171.2047
391.632450 95.970 171.1641
394.470380 96.057 171.1255
397.328875 96.147 171.0887
400.208084 96.238 171.0533
403.108157 96.328 171.0190
406.029245 96.416 170.9854
408.971500 96.501 170.9519
411.935076 96.583 170.9182
414.920127 96.662 170.8839
417.926810 96.739 170.8488
420.955280 96.813 170.8126
424.005695 96.886 170.7753
427.078215 96.959 170.7372
430.173000 97.031 170.6989
433.290211 97.104 170.6609
436.430010 97.177 170.6238
439.592562 97.250 170.5883
442.778031 97.322 170.5546
445.986583 97.391 170.5228
449.218386 97.457 170.4929
452.473607 97.516 170.4647
455.752418 97.569 170.4378
459.054987 97.613 170.4121
462.381489 97.648 170.3874
465.732096 97.672 170.3635
469.106983 97.686 170.3405
472.506325 97.689 170.3183
475.930301 97.682 170.2972
479.379088 97.666 170.2773
482.852867 97.642 170.2589
486.351817 97.611 170.2421
489.876123 97.575 170.2272
493.425968 97.533 170.2144
497.001536 97.487 170.2037
500.603014 97.438 170.1952
504.230589 97.386 170.1887
507.884452 97.330 170.1841
511.564792 97.272 170.1812
515.271802 97.211 170.1798
519.005673 97.148 170.1798
522.766602 97.083 170.1810
526.554785 97.019 170.1835
530.370418 96.956 170.1870
534.213700 96.896 170.1918
538.084833 96.841 170.1977
541.984018 96.794 170.2050
545.911457 96.754 170.2136
549.867357 96.725 170.2237
553.851922 96.704 170.2354
557.865362 96.693 170.2483
561.907884 96.689 170.2624
565.979700 96.691 170.2773
570.081022 96.697 170.2930
574.212064 96.705 170.3091
578.373042 96.713 170.3258
582.564171 96.718 170.3433
586.785671 96.720 170.3618
591.037762 96.716 170.3813
595.320665 96.706 170.4021
599.634604 96.690 170.4243
603.979804 96.667 170.4478
608.356491 96.637 170.4728
612.764893 96.601 170.4990
617.205240 96.560 170.5264
621.677763 96.514 170.5547
626.182696 96.466 170.5837
630.720274 96.416 170.6129
635.290733 96.367 170.6417
639.894312 96.320 170.6696
644.531250 96.277 170.6962
649.201789 96.239 170.7212
653.906173 96.209 170.7446
658.644647 96.185 170.7665
663.417457 96.169 170.7874
668.224854 96.160 170.8076
673.067086 96.156 170.8275
677.944408 96.157 170.8475
682.857073 96.161 170.8674
687.805336 96.166 170.8873
692.789457 96.171 170.9066
697.809695 96.174 170.9248
702.866312 96.175 170.9410
707.959571 96.172 170.9542
713.089738 96.165 170.9634
718.257080 96.154 170.9676
723.461867 96.138 170.9659
728.704370 96.117 170.9578
733.984862 96.093 170.9431
739.303619 96.064 170.9219
744.660918 96.032 170.8951
750.057038 95.996 170.8641
755.492260 95.957 170.8314
760.966869 95.915 170.8004
766.481148 95.869 170.7759
772.035387 95.819 170.7643
777.629873 95.765 170.7726
783.264900 95.707 170.8082
788.940760 95.644 170.8774
794.657750 95.577 170.9836
800.416168 95.509 171.1250
806.216313 95.438 171.2940
812.058489 95.367 171.4782
817.943000 95.296 171.6634
823.870152 95.223 171.8365
829.840255 95.150 171.9884
835.853619 95.075 172.1133
841.910559 94.998 172.2094
848.011390 94.919 172.2775
854.156430 94.839 172.3202
860.346000 94.756 172.3409
866.580422 94.673 172.3438
872.860020 94.590 172.3322
879.185124 94.508 172.3094
885.556062 94.428 172.2777
891.973166 94.352 172.2386
898.436771 94.281 172.1929
904.947215 94.215 172.1407
911.504835 94.157 172.0819
918.109975 94.106 172.0159
924.762978 94.064 171.9419
931.464192 94.030 171.8588
938.213966 94.005 171.7658
945.012651 93.988 171.6624
951.860602 93.979 171.5489
958.758176 93.976 171.4267
965.705733 93.978 171.2978
972.703635 93.984 171.1651
979.752246 93.992 171.0325
986.851935 94.002 170.9047
994.003071 94.012 170.7880
1001.206027 94.023 170.6897
1008.461179 94.034 170.6184
1015.768904 94.047 170.5828
1023.129584 94.064 170.5906
1030.543603 94.086 170.6474
1038.011347 94.117 170.7547
1045.533205 94.159 170.9092
1053.109569 94.214 171.1024
1060.740836 94.284 171.3218
1068.427401 94.368 171.5527
1076.169666 94.467 171.7805
1083.968035 94.576 171.9928
1091.822915 94.694 172.1801
1099.734713 94.817 172.3370
1107.703844 94.942 172.4613
1115.730723 95.066 172.5538
1123.815768 95.186 172.6170
1131.959400 95.300 172.6546
1140.162045 95.407 172.6706
1148.424129 95.507 172.6691
1156.746083 95.598 172.6541
1165.128342 95.682 172.6291
1173.571343 95.760 172.5970
1182.075524 95.832 172.5604
1190.641331 95.901 172.5217
1199.269209 95.967 172.4824
1207.959608 96.032 172.4435
1216.712981 96.096 172.4050
1225.529785 96.161 172.3666
1234.410479 96.226 172.3275
1243.355526 96.291 172.2869
1252.365393 96.355 172.2438
1261.440549 96.417 172.1977
1270.581467 96.477 172.1479
1279.788624 96.535 172.0938
1289.062500 96.589 172.0352
1298.403578 96.638 171.9724
1307.812346 96.684 171.9055
1317.289293 96.726 171.8349
1326.834914 96.763 171.7607
1336.449707 96.797 171.6830
1346.134173 96.827 171.6019
1355.888816 96.854 171.5178
1365.714145 96.877 171.4311
1375.610673 96.897 171.3421
1385.578915 96.913 171.2512
1395.619391 96.926 171.1590
1405.732624 96.934 171.0664
1415.919142 96.939 170.9752
1426.179476 96.940 170.8882
1436.514160 96.937 170.8087
1446.923734 96.933 170.7399
1457.408740 96.927 170.6842
1467.969724 96.921 170.6434
1478.607238 96.917 170.6179
1489.321836 96.915 170.6069
1500.114076 96.917 170.6088
1510.984521 96.923 170.6211
1521.933737 96.933 170.6406
1532.962297 96.948 170.6642
1544.070773 96.967 170.6885
1555.259747 96.990 170.7103
1566.529800 97.015 170.7275
1577.881521 97.041 170.7393
1589.315501 97.067 170.7462
1600.832336 97.092 170.7501
1612.432627 97.115 170.7540
1624.116978 97.136 170.7614
1635.886000 97.155 170.7756
1647.740304 97.171 170.8001
1659.680509 97.186 170.8379
1671.707238 97.200 170.8912
1683.821118 97.213 170.9617
1696.022780 97.226 171.0499
1708.312860 97.240 171.1552
1720.692000 97.255 171.2762
1733.160843 97.273 171.4109
1745.720041 97.293 171.5569
1758.370248 97.316 171.7112
1771.112124 97.340 171.8712
1783.946332 97.366 172.0348
1796.873543 97.392 172.2003
1809.894429 97.418 172.3663
1823.009670 97.444 172.5317
1836.219950 97.468 172.6952
1849.525956 97.491 172.8568
1862.928384 97.512 173.0179
1876.427931 97.530 173.1814
1890.025301 97.546 173.3508
1903.721204 97.560 173.5292
1917.516352 97.573 173.7188
1931.411466 97.585 173.9215
1945.407270 97.596 174.1384
1959.504493 97.606 174.3700
1973.703870 97.615 174.6159
1988.006142 97.622 174.8743
2002.412054 97.627 175.1425
2016.922357 97.630 175.4168
2031.537808 97.628 175.6933
2046.259169 97.622 175.9684
2061.087206 97.610 176.2395
2076.022694 97.593 176.5045
2091.066410 97.569 176.7629
2106.219139 97.538 177.0149
2121.481671 97.502 177.2621
2136.854802 97.461 177.5068
2152.339333 97.415 177.7516
2167.936071 97.367 177.9993
2183.645829 97.317 178.2520
2199.469427 97.268 178.5114
2215.407689 97.222 178.7781
2231.461446 97.180 179.0510
2247.631536 97.143 179.3275
2263.918800 97.113 179.6029
2280.324089 97.091 179.8717
2296.848258 97.076 -179.8722
2313.492167 97.068 -179.6349
2330.256685 97.066 -179.4212
2347.142685 97.070 -179.2347
2364.151049 97.078 -179.0767
2381.282662 97.089 -178.9466
2398.538418 97.101 -178.8418
2415.919216 97.115 -178.7585
2433.425962 97.130 -178.6923
2451.059570 97.146 -178.6390
2468.820958 97.163 -178.5951
2486.711052 97.182 -178.5587
2504.730786 97.204 -178.5296
2522.881098 97.230 -178.5090
2541.162934 97.261 -178.4995
2559.577248 97.296 -178.5039
2578.125000 97.338 -178.5251
2596.807157 97.386 -178.5652
2615.624692 97.441 -178.6253
2634.578586 97.502 -178.7049
2653.669829 97.571 -178.8020
2672.899414 97.646 -178.9133
2692.268345 97.728 -179.0347
2711.777632 97.817 -179.1619
2731.428290 97.913 -179.2913
2751.221345 98.014 -179.4201
2771.157829 98.120 -179.5472
2791.238781 98.230 -179.6724
2811.465248 98.342 -179.7964
2831.838284 98.453 -179.9189
2852.358952 98.562 179.9613
2873.028321 98.667 179.8470
2893.847468 98.764 179.7421
2914.817480 98.854 179.6516
2935.939449 98.935 179.5811
2957.214476 99.006 179.5356
2978.643672 99.068 179.5193
3000.228152 99.122 179.5345
3021.969041 99.167 179.5808
3043.867475 99.207 179.6554
3065.924593 99.241 179.7524
3088.141547 99.272 179.8636
3110.519493 99.300 179.9789
3133.059600 99.326 -179.9124
3155.763041 99.351 -179.8198
3178.631001 99.374 -179.7509
3201.664672 99.396 -179.7099
3224.865254 99.416 -179.6982
3248.233957 99.433 -179.7145
3271.771999 99.448 -179.7566
3295.480608 99.460 -179.8218
3319.361019 99.470 -179.9074
3343.414477 99.478 179.9886
3367.642236 99.483 179.8679
3392.045560 99.486 179.7322
3416.625721 99.487 179.5834
3441.383999 99.485 179.4241
3466.321686 99.482 179.2578
3491.440082 99.476 179.0891
3516.740496 99.468 178.9232
3542.224247 99.459 178.7657
3567.892664 99.449 178.6226
3593.747085 99.440 178.4990
3619.788858 99.433 178.3995
3646.019340 99.429 178.3277
3672.439900 99.428 178.2859
3699.051913 99.432 178.2757
3725.856768 99.442 178.2982
3752.855862 99.459 178.3538
3780.050603 99.482 178.4425
3807.442408 99.513 178.5636
3835.032705 99.552 178.7152
3862.822933 99.600 178.8945
3890.814540 99.656 179.0976
3919.008986 99.721 179.3193
3947.407741 99.795 179.5542
3976.012284 99.876 179.7968
4004.824108 99.965 -179.9582
4033.844715 100.062 -179.7152
4063.075616 100.164 -179.4784
4092.518337 100.273 -179.2520
4122.174412 100.388 -179.0406
4152.045387 100.508 -178.8496
4182.132820 100.633 -178.6850
4212.438278 100.763 -178.5531
4242.963342 100.897 -178.4601
4273.709604 101.033 -178.4114
4304.678665 101.171 -178.4116
4335.872141 101.311 -178.4642
4367.291658 101.450 -178.5724
4398.938854 101.588 -178.7389
4430.815378 101.723 -178.9665
4462.922893 101.855 -179.2578
4495.263072 101.982 -179.6150
4527.837601 102.102 179.9605
4560.648179 102.215 179.4684
4593.696515 102.319 178.9099
4626.984334 102.413 178.2867
4660.513370 102.497 177.6014
4694.285371 102.571 176.8566
4728.302098 102.635 176.0549
4762.565324 102.688 175.1993
4797.076835 102.732 174.2927
4831.838432 102.766 173.3380
4866.851925 102.793 172.3378
4902.119140 102.811 171.2939
4937.641916 102.823 170.2075
4973.422105 102.828 169.0785
5009.461572 102.827 167.9070
5045.762195 102.820 166.6927
5082.325868 102.805 165.4364
5119.154496 102.784 164.1394
5156.250000 102.753 162.8043
5193.614313 102.714 161.4343
5231.249383 102.663 160.0341
5269.157173 102.600 158.6093
5307.339658 102.523 157.1673
5345.798829 102.431 155.7169
5384.536691 102.323 154.2683
5423.555263 102.197 152.8333
5462.856580 102.053 151.4240
5502.442691 101.890 150.0535
5542.315659 101.708 148.7350
5582.477563 101.507 147.4823
5622.930497 101.289 146.3091
5663.676569 101.054 145.2290
5704.717904 100.804 144.2556
5746.056642 100.540 143.4022
5787.694937 100.265 142.6823
5829.634960 99.982 142.1089
5871.878898 99.693 141.6949
5914.428953 99.401 141.4528
5957.287343 99.110 141.3939
6000.456303 98.824 141.5286
6043.938083 98.545 141.8645
6087.734950 98.280 142.4048
6131.849187 98.031 143.1456
6176.283094 97.802 144.0737
6221.038987 97.598 145.1649
6266.119200 97.420 146.3843
6311.526083 97.270 147.6876
6357.262002 97.147 149.0251
6403.329344 97.048 150.3469
6449.730508 96.970 151.6075
6496.467914 96.909 152.7709
6543.543998 96.859 153.8129
6590.961215 96.815 154.7217
6638.722037 96.773 155.4969
6686.828954 96.729 156.1474
6735.284473 96.682 156.6880
6784.091120 96.630 157.1368
6833.251441 96.573 157.5125
6882.767998 96.513 157.8313
6932.643372 96.450 158.1061
6982.880164 96.389 158.3448
7033.480992 96.331 158.5499
7084.448495 96.278 158.7186
7135.785329 96.233 158.8435
7187.494171 96.196 158.9138
7239.577717 96.168 158.9161
7292.038681 96.148 158.8354
7344.879799 96.136 158.6560
7398.103826 96.128 158.3625
7451.713536 96.123 157.9397
7505.711724 96.117 157.3734
7560.101205 96.108 156.6497
7614.884815 96.090 155.7554
7670.065409 96.062 154.6773
7725.645865 96.018 153.4028
7781.629080 95.957 151.9196
7838.017972 95.874 150.2156
7894.815481 95.766 148.2800
7952.024569 95.630 146.1031
8009.648217 95.462 143.6775
8067.689429 95.261 140.9987
8126.151233 95.024 138.0659
8185.036674 94.751 134.8821
8244.348824 94.441 131.4529
8304.090774 94.099 127.7840
8364.265639 93.732 123.8726
8424.876556 93.350 119.6854
8485.926684 92.972 115.0876
8547.419207 92.619 109.5338
8609.357330 92.318 99.3403
8671.744282 92.096 -43.4589
8734.583316 91.974 -69.8598
8797.877707 91.967 -76.1740
8861.630756 92.075 -80.5018
8925.845785 92.288 -84.0959
8990.526143 92.590 -87.2612
9055.675202 92.959 -90.1171
9121.296357 93.375 -92.7311
9187.393031 93.820 -95.1534
9253.968668 94.281 -97.4286
9321.026740 94.745 -99.5991
9388.570742 95.204 -101.7064
9456.604196 95.651 -103.7900
9525.130648 96.080 -105.8864
9594.153671 96.485 -108.0278
9663.676863 96.863 -110.2400
9733.703850 97.208 -112.5419
9804.238280 97.518 -114.9448
9875.283832 97.789 -117.4518
9946.844210 98.020 -120.0584
10018.923143 98.208 -122.7531
10091.524390 98.354 -125.5178
10164.651736 98.456 -128.3297
10238.308993 98.517 -131.1621
10312.500000 98.538 -133.9866
10387.228626 98.523 -136.7745
10462.498767 98.475 -139.4993
10538.314345 98.400 -142.1384
10614.679315 98.304 -144.6752
10691.597657 98.192 -147.1006
10769.073381 98.072 -149.4150
10847.110526 97.949 -151.6287
10925.713161 97.828 -153.7619
11004.885382 97.714 -155.8444
11084.631318 97.609 -157.9133
11164.955126 97.513 -160.0105
11245.860993 97.424 -162.1784
11327.353138 97.339 -164.4568
11409.435808 97.251 -166.8779
11492.113283 97.154 -169.4634
11575.389873 97.040 -172.2217
11659.269920 96.899 -175.1462
11743.757796 96.726 -178.2156
11828.857906 96.513 178.6039
11914.574686 96.256 175.3552
12000.912606 95.954 172.0850
12087.876166 95.606 168.8375
12175.469900 95.216 165.6503
12263.698373 94.789 162.5504
12352.566187 94.330 159.5541
12442.077974 93.846 156.6669
12532.238400 93.342 153.8857
12623.052165 92.825 151.2015
12714.524005 92.299 148.6009
12806.658687 91.770 146.0685
12899.461015 91.242 143.5869
12992.935827 90.721 141.1364
13087.087996 90.211 138.6932
13181.922430 89.721 136.2278
13277.444074 89.259 133.7031
13373.657907 88.833 131.0745
13470.568945 88.454 128.2906
13568.182241 88.131 125.2966
13666.502883 87.870 122.0385
13765.535996 87.677 118.4671
13865.286744 87.554 114.5429
13965.760328 87.499 110.2379
14066.961984 87.507 105.5367
14168.896989 87.571 100.4364
14271.570658 87.686 94.9449
14374.988342 87.841 89.0802
14479.155433 88.029 82.8679
14584.077362 88.241 76.3403
14689.759598 88.469 69.5333
14796.207652 88.706 62.4851
14903.427072 88.945 55.2324
15011.423448 89.178 47.8091
15120.202410 89.398 40.2455
15229.769630 89.598 32.5681
15340.130819 89.769 24.8010
15451.291730 89.903 16.9686
15563.258160 89.992 9.0972
15676.035944 90.028 1.2164
15789.630962 90.008 -6.6406
15904.049137 89.929 -14.4405
16019.296433 89.791 -22.1530
16135.378859 89.598 -29.7554
16252.302465 89.355 -37.2363
16370.073348 89.070 -44.5970
16488.697648 88.750 -51.8511
16608.181548 88.404 -59.0207
16728.531278 88.036 -66.1319
16849.753112 87.649 -73.2095
16971.853368 87.243 -80.2707
17094.838414 86.814 -87.3206
17218.714660 86.358 -94.3485
17343.488565 85.866 -101.3245
17469.166632 85.333 -108.1989
17595.755415 84.751 -114.9015
17723.261512 84.115 -121.3417
17851.691571 83.421 -127.4091
17981.052287 82.668 -132.9756
18111.350404 81.857 -137.9004
18242.592715 80.990 -142.0392
18374.786062 80.075 -145.2600
18507.937336 79.120 -147.4661
18642.053479 78.138 -148.6190
18777.141484 77.142 -148.7485
18913.208391 76.149 -147.9236
19050.261296 75.181 -146.1719
19188.307342 74.259 -143.3701
19327.353727 73.409 -139.1721
19467.407699 72.656 -133.0903
19608.476560 72.027 -124.9277
19750.567664 71.542 -115.5836
19893.688419 71.213 -107.3312
20037.846286 71.048 -102.5793
