* Measurement data measured by REW V5.31.3
* Source: EXCL: Headset (USB-C to 3.5mm Headphone Jack Adapter), MICROPHONE (Master Volume), 0, volume: 0.260
* Format: 256k Log Swept Sine, 1 sweep at -12.0 dBFS with no timing reference
* Dated: Feb 9, 2025 9:41:12 PM
* REW Settings:
*  C-weighting compensation: Off
*  Target level: 75.0 dB
* Note: ; 
* Measurement: HD650 (Worn) R7
* Smoothing: 1/6 octave
* Frequency Step: 96 ppo
* Start Frequency: 20.0 Hz
*
* Freq(Hz) SPL(dB) Phase(degrees)
20.141602 85.904 -22.3399
20.287556 85.932 -22.5825
20.434568 85.967 -22.9063
20.582645 86.007 -23.3013
20.731796 86.048 -23.7565
20.882027 86.087 -24.2612
21.033346 86.122 -24.8051
21.185763 86.150 -25.3788
21.339284 86.171 -25.9743
21.493917 86.184 -26.5845
21.649671 86.188 -27.2038
21.806553 86.185 -27.8276
21.964572 86.176 -28.4525
22.123737 86.162 -29.0758
22.284054 86.145 -29.6961
22.445534 86.127 -30.3122
22.608183 86.110 -30.9237
22.772012 86.096 -31.5305
22.937027 86.086 -32.1328
23.103238 86.083 -32.7306
23.270654 86.087 -33.3241
23.439282 86.101 -33.9134
23.609133 86.126 -34.4987
23.780215 86.163 -35.0799
23.952536 86.211 -35.6573
24.126106 86.273 -36.2309
24.300934 86.346 -36.8012
24.477028 86.430 -37.3686
24.654399 86.524 -37.9340
24.833055 86.626 -38.4981
25.013005 86.734 -39.0618
25.194260 86.845 -39.6259
25.376828 86.957 -40.1911
25.560719 87.068 -40.7580
25.745942 87.176 -41.3270
25.932508 87.280 -41.8982
26.120426 87.379 -42.4715
26.309705 87.471 -43.0468
26.500356 87.557 -43.6238
26.692388 87.638 -44.2018
26.885812 87.712 -44.7802
27.080638 87.783 -45.3584
27.276876 87.849 -45.9355
27.474535 87.913 -46.5104
27.673627 87.977 -47.0822
27.874161 88.042 -47.6498
28.076149 88.110 -48.2122
28.279600 88.183 -48.7688
28.484526 88.265 -49.3193
28.690937 88.356 -49.8639
28.898843 88.459 -50.4035
29.108256 88.575 -50.9395
29.319186 88.706 -51.4743
29.531645 88.851 -52.0106
29.745644 89.009 -52.5516
29.961193 89.177 -53.1004
30.178304 89.354 -53.6598
30.396989 89.536 -54.2322
30.617258 89.717 -54.8187
30.839123 89.895 -55.4190
31.062596 90.063 -56.0315
31.287688 90.218 -56.6532
31.514412 90.355 -57.2796
31.742778 90.471 -57.9056
31.972800 90.564 -58.5256
32.204488 90.631 -59.1346
32.437855 90.672 -59.7286
32.672913 90.686 -60.3052
32.909674 90.674 -60.8640
33.148151 90.638 -61.4065
33.388356 90.581 -61.9361
33.630302 90.504 -62.4573
33.874001 90.412 -62.9754
34.119466 90.308 -63.4951
34.366710 90.195 -64.0202
34.615745 90.079 -64.5533
34.866585 89.961 -65.0949
35.119243 89.846 -65.6443
35.373731 89.738 -66.1996
35.630064 89.639 -66.7580
35.888254 89.553 -67.3170
36.148315 89.481 -67.8746
36.410261 89.427 -68.4294
36.674104 89.392 -68.9810
36.939860 89.377 -69.5298
37.207542 89.383 -70.0766
37.477163 89.409 -70.6223
37.748738 89.457 -71.1677
38.022281 89.526 -71.7132
38.297806 89.615 -72.2589
38.575327 89.725 -72.8045
38.854860 89.854 -73.3497
39.136419 90.003 -73.8942
39.420017 90.171 -74.4378
39.705671 90.358 -74.9805
39.993395 90.561 -75.5224
40.283203 90.779 -76.0634
40.575112 91.012 -76.6034
40.869136 91.257 -77.1424
41.165290 91.512 -77.6800
41.463591 91.775 -78.2159
41.764053 92.045 -78.7498
42.066693 92.317 -79.2817
42.371525 92.591 -79.8118
42.678567 92.864 -80.3403
42.987834 93.134 -80.8682
43.299341 93.399 -81.3964
43.613106 93.657 -81.9263
43.929145 93.907 -82.4590
44.247473 94.146 -82.9959
44.568109 94.373 -83.5373
44.891068 94.587 -84.0831
45.216367 94.787 -84.6321
45.544023 94.971 -85.1824
45.874054 95.139 -85.7316
46.206476 95.291 -86.2773
46.541307 95.425 -86.8176
46.878565 95.542 -87.3513
47.218266 95.642 -87.8784
47.560429 95.725 -88.3996
47.905072 95.792 -88.9162
48.252212 95.845 -89.4298
48.601867 95.884 -89.9424
48.954056 95.911 -90.4555
49.308798 95.928 -90.9706
49.666109 95.937 -91.4883
50.026010 95.939 -92.0087
50.388520 95.937 -92.5310
50.753656 95.933 -93.0542
51.121437 95.927 -93.5767
51.491884 95.923 -94.0972
51.865016 95.920 -94.6150
52.240851 95.921 -95.1296
52.619410 95.925 -95.6411
53.000712 95.934 -96.1498
53.384777 95.946 -96.6562
53.771625 95.962 -97.1609
54.161276 95.980 -97.6642
54.553751 96.000 -98.1667
54.949070 96.020 -98.6688
55.347254 96.040 -99.1710
55.748323 96.058 -99.6738
56.152298 96.074 -100.1777
56.559201 96.087 -100.6836
56.969052 96.096 -101.1922
57.381873 96.103 -101.7044
57.797686 96.106 -102.2203
58.216512 96.106 -102.7393
58.638373 96.103 -103.2599
59.063291 96.098 -103.7804
59.491288 96.091 -104.2990
59.922386 96.083 -104.8149
60.356608 96.074 -105.3281
60.793977 96.065 -105.8396
61.234515 96.056 -106.3503
61.678246 96.046 -106.8615
62.125192 96.036 -107.3739
62.575377 96.026 -107.8877
63.028824 96.017 -108.4028
63.485557 96.009 -108.9187
63.945599 96.002 -109.4345
64.408975 95.998 -109.9493
64.875709 95.996 -110.4621
65.345825 95.996 -110.9723
65.819348 96.000 -111.4797
66.296302 96.007 -111.9847
66.776713 96.017 -112.4880
67.260604 96.030 -112.9904
67.748002 96.045 -113.4927
68.238932 96.063 -113.9957
68.733420 96.082 -114.4996
69.231490 96.104 -115.0042
69.733170 96.127 -115.5090
70.238485 96.150 -116.0131
70.747463 96.176 -116.5156
71.260128 96.202 -117.0157
71.776508 96.229 -117.5129
72.296630 96.257 -118.0073
72.820521 96.287 -118.4989
73.348209 96.318 -118.9884
73.879720 96.350 -119.4764
74.415083 96.382 -119.9636
74.954326 96.415 -120.4510
75.497475 96.449 -120.9396
76.044561 96.481 -121.4304
76.595612 96.513 -121.9245
77.150655 96.543 -122.4228
77.709720 96.571 -122.9258
78.272837 96.596 -123.4335
78.840034 96.618 -123.9453
79.411342 96.635 -124.4601
79.986789 96.649 -124.9764
80.566406 96.658 -125.4932
81.150224 96.662 -126.0090
81.738272 96.663 -126.5230
82.330581 96.661 -127.0341
82.927182 96.657 -127.5415
83.528107 96.652 -128.0445
84.133386 96.650 -128.5423
84.743051 96.651 -129.0345
85.357134 96.658 -129.5207
85.975667 96.675 -130.0009
86.598682 96.706 -130.4750
87.226212 96.753 -130.9431
87.858289 96.819 -131.4057
88.494946 96.908 -131.8630
89.136217 97.021 -132.3156
89.782135 97.158 -132.7641
90.432733 97.318 -133.2091
91.088046 97.499 -133.6511
91.748108 97.698 -134.0905
92.412952 97.908 -134.5274
93.082615 98.126 -134.9618
93.757130 98.345 -135.3935
94.436533 98.560 -135.8221
95.120859 98.767 -136.2473
95.810144 98.960 -136.6688
96.504423 99.137 -137.0862
97.203734 99.297 -137.4996
97.908112 99.439 -137.9092
98.617595 99.562 -138.3159
99.332219 99.669 -138.7204
100.052021 99.760 -139.1238
100.777039 99.839 -139.5266
101.507311 99.907 -139.9292
102.242875 99.967 -140.3317
102.983769 100.020 -140.7336
103.730032 100.067 -141.1341
104.481702 100.110 -141.5327
105.238820 100.147 -141.9288
106.001424 100.179 -142.3223
106.769554 100.204 -142.7132
107.543250 100.219 -143.1020
108.322553 100.225 -143.4893
109.107503 100.218 -143.8752
109.898141 100.198 -144.2599
110.694508 100.165 -144.6429
111.496646 100.118 -145.0238
112.304596 100.059 -145.4022
113.118402 99.987 -145.7776
113.938104 99.906 -146.1499
114.763747 99.817 -146.5192
115.595372 99.722 -146.8859
116.433024 99.625 -147.2503
117.276746 99.526 -147.6131
118.126581 99.428 -147.9744
118.982575 99.332 -148.3345
119.844772 99.239 -148.6935
120.713217 99.150 -149.0513
121.587954 99.063 -149.4079
122.469031 98.978 -149.7634
123.356492 98.894 -150.1176
124.250384 98.810 -150.4708
125.150753 98.725 -150.8232
126.057647 98.636 -151.1750
126.971113 98.543 -151.5266
127.891198 98.444 -151.8781
128.817950 98.339 -152.2294
129.751418 98.227 -152.5804
130.691651 98.109 -152.9309
131.638696 97.984 -153.2809
132.592604 97.856 -153.6301
133.553425 97.726 -153.9785
134.521208 97.597 -154.3260
135.496004 97.471 -154.6725
136.477864 97.354 -155.0178
137.466839 97.247 -155.3618
138.462981 97.154 -155.7044
139.466340 97.079 -156.0454
140.476971 97.021 -156.3847
141.494925 96.983 -156.7222
142.520256 96.962 -157.0578
143.553016 96.958 -157.3913
144.593260 96.967 -157.7227
145.641043 96.985 -158.0521
146.696418 97.009 -158.3795
147.759441 97.034 -158.7050
148.830166 97.057 -159.0289
149.908651 97.075 -159.3512
150.994951 97.086 -159.6722
152.089123 97.090 -159.9919
153.191223 97.086 -160.3104
154.301310 97.075 -160.6275
155.419441 97.059 -160.9432
156.545674 97.039 -161.2576
157.680069 97.017 -161.5707
158.822683 96.994 -161.8827
159.973578 96.973 -162.1939
161.132813 96.953 -162.5046
162.300447 96.936 -162.8149
163.476543 96.922 -163.1248
164.661162 96.912 -163.4342
165.854364 96.906 -163.7427
167.056213 96.903 -164.0499
168.266772 96.903 -164.3553
169.486102 96.908 -164.6584
170.714268 96.917 -164.9591
171.951334 96.930 -165.2572
173.197364 96.948 -165.5529
174.452424 96.969 -165.8463
175.716578 96.995 -166.1376
176.989893 97.023 -166.4270
178.272434 97.054 -166.7146
179.564270 97.087 -167.0004
180.865467 97.120 -167.2843
182.176092 97.152 -167.5664
183.496216 97.181 -167.8464
184.825905 97.209 -168.1244
186.165229 97.232 -168.4002
187.514259 97.253 -168.6737
188.873065 97.270 -168.9451
190.241717 97.285 -169.2142
191.620287 97.297 -169.4814
193.008847 97.308 -169.7467
194.407468 97.318 -170.0103
195.816225 97.327 -170.2724
197.235190 97.336 -170.5334
198.664438 97.344 -170.7934
200.104042 97.352 -171.0530
201.554078 97.358 -171.3123
203.014622 97.362 -171.5716
204.485750 97.365 -171.8309
205.967538 97.364 -172.0901
207.460064 97.360 -172.3486
208.963405 97.353 -172.6061
210.477640 97.342 -172.8619
212.002848 97.328 -173.1158
213.539108 97.310 -173.3672
215.086500 97.290 -173.6163
216.645105 97.268 -173.8630
218.215005 97.244 -174.1074
219.796281 97.217 -174.3498
221.389015 97.188 -174.5902
222.993292 97.157 -174.8284
224.609193 97.122 -175.0644
226.236804 97.082 -175.2979
227.876209 97.038 -175.5289
229.527494 96.989 -175.7574
231.190745 96.934 -175.9833
232.866048 96.873 -176.2066
234.553491 96.807 -176.4275
236.253163 96.736 -176.6459
237.965150 96.660 -176.8616
239.689544 96.581 -177.0746
241.426433 96.500 -177.2847
243.175909 96.417 -177.4917
244.938062 96.334 -177.6955
246.712984 96.252 -177.8958
248.500768 96.171 -178.0923
250.301507 96.092 -178.2849
252.115295 96.017 -178.4730
253.942226 95.945 -178.6564
255.782396 95.877 -178.8348
257.635901 95.814 -179.0077
259.502837 95.757 -179.1748
261.383301 95.705 -179.3355
263.277392 95.659 -179.4893
265.185209 95.620 -179.6357
267.106850 95.587 -179.7743
269.042417 95.560 -179.9050
270.992009 95.539 179.9723
272.955729 95.524 179.8578
274.933678 95.514 179.7512
276.925961 95.509 179.6526
278.932681 95.508 179.5613
280.953942 95.511 179.4765
282.989850 95.518 179.3968
285.040511 95.528 179.3205
287.106032 95.543 179.2456
289.186521 95.563 179.1700
291.282086 95.589 179.0920
293.392836 95.620 179.0100
295.518881 95.658 178.9229
297.660333 95.703 178.8300
299.817302 95.753 178.7309
301.989902 95.809 178.6259
304.178245 95.868 178.5153
306.382446 95.929 178.3999
308.602620 95.990 178.2805
310.838882 96.049 178.1578
313.091348 96.104 178.0329
315.360137 96.154 177.9066
317.645367 96.198 177.7795
319.947156 96.234 177.6524
322.265625 96.261 177.5258
324.600895 96.278 177.3999
326.953086 96.286 177.2750
329.322323 96.283 177.1512
331.708729 96.269 177.0283
334.112427 96.245 176.9064
336.533543 96.210 176.7856
338.972204 96.166 176.6658
341.428536 96.111 176.5473
343.902668 96.048 176.4303
346.394729 95.978 176.3152
348.904848 95.901 176.2021
351.433156 95.821 176.0914
353.979786 95.740 175.9833
356.544869 95.659 175.8777
359.128540 95.581 175.7747
361.730934 95.510 175.6743
364.352185 95.448 175.5760
366.992431 95.398 175.4800
369.651810 95.362 175.3860
372.330459 95.343 175.2942
375.028519 95.341 175.2045
377.746130 95.357 175.1171
380.483434 95.390 175.0319
383.240574 95.439 174.9492
386.017693 95.501 174.8690
388.814937 95.575 174.7912
391.632450 95.658 174.7158
394.470380 95.746 174.6425
397.328875 95.838 174.5710
400.208084 95.931 174.5010
403.108157 96.023 174.4319
406.029245 96.113 174.3636
408.971500 96.201 174.2956
411.935076 96.285 174.2280
414.920127 96.367 174.1606
417.926810 96.446 174.0936
420.955280 96.523 174.0269
424.005695 96.599 173.9608
427.078215 96.674 173.8953
430.173000 96.749 173.8306
433.290211 96.825 173.7667
436.430010 96.901 173.7041
439.592562 96.976 173.6429
442.778031 97.050 173.5836
445.986583 97.121 173.5262
449.218386 97.188 173.4711
452.473607 97.249 173.4182
455.752418 97.302 173.3675
459.054987 97.347 173.3187
462.381489 97.383 173.2717
465.732096 97.408 173.2263
469.106983 97.422 173.1822
472.506325 97.427 173.1393
475.930301 97.421 173.0972
479.379088 97.407 173.0559
482.852867 97.384 173.0153
486.351817 97.355 172.9752
489.876123 97.320 172.9359
493.425968 97.279 172.8976
497.001536 97.235 172.8604
500.603014 97.186 172.8247
504.230589 97.135 172.7907
507.884452 97.080 172.7585
511.564792 97.023 172.7283
515.271802 96.962 172.7004
519.005673 96.900 172.6751
522.766602 96.836 172.6527
526.554785 96.772 172.6334
530.370418 96.710 172.6174
534.213700 96.652 172.6045
538.084833 96.599 172.5944
541.984018 96.553 172.5866
545.911457 96.516 172.5805
549.867357 96.489 172.5755
553.851922 96.471 172.5712
557.865362 96.462 172.5673
561.907884 96.460 172.5634
565.979700 96.465 172.5596
570.081022 96.473 172.5557
574.212064 96.483 172.5518
578.373042 96.493 172.5480
582.564171 96.500 172.5443
586.785671 96.504 172.5409
591.037762 96.502 172.5380
595.320665 96.495 172.5361
599.634604 96.480 172.5356
603.979804 96.459 172.5371
608.356491 96.431 172.5410
612.764893 96.396 172.5478
617.205240 96.356 172.5577
621.677763 96.312 172.5707
626.182696 96.264 172.5865
630.720274 96.216 172.6047
635.290733 96.168 172.6245
639.894312 96.122 172.6453
644.531250 96.081 172.6664
649.201789 96.046 172.6873
653.906173 96.017 172.7076
658.644647 95.997 172.7270
663.417457 95.984 172.7449
668.224854 95.978 172.7614
673.067086 95.978 172.7763
677.944408 95.982 172.7896
682.857073 95.990 172.8014
687.805336 95.999 172.8120
692.789457 96.008 172.8215
697.809695 96.015 172.8298
702.866312 96.020 172.8369
707.959571 96.021 172.8424
713.089738 96.017 172.8462
718.257080 96.010 172.8482
723.461867 95.998 172.8483
728.704370 95.981 172.8466
733.984862 95.961 172.8432
739.303619 95.938 172.8383
744.660918 95.913 172.8322
750.057038 95.886 172.8253
755.492260 95.857 172.8179
760.966869 95.828 172.8106
766.481148 95.798 172.8037
772.035387 95.767 172.7976
777.629873 95.734 172.7921
783.264900 95.700 172.7869
788.940760 95.662 172.7811
794.657750 95.622 172.7737
800.416168 95.577 172.7634
806.216313 95.526 172.7491
812.058489 95.471 172.7296
817.943000 95.409 172.7042
823.870152 95.341 172.6722
829.840255 95.267 172.6331
835.853619 95.189 172.5863
841.910559 95.106 172.5313
848.011390 95.019 172.4676
854.156430 94.930 172.3946
860.346000 94.840 172.3118
866.580422 94.750 172.2187
872.860020 94.659 172.1151
879.185124 94.571 172.0008
885.556062 94.484 171.8761
891.973166 94.400 171.7416
898.436771 94.320 171.5984
904.947215 94.245 171.4480
911.504835 94.174 171.2921
918.109975 94.109 171.1334
924.762978 94.049 170.9749
931.464192 93.995 170.8207
938.213966 93.948 170.6758
945.012651 93.906 170.5461
951.860602 93.870 170.4382
958.758176 93.840 170.3591
965.705733 93.816 170.3151
972.703635 93.799 170.3115
979.752246 93.788 170.3508
986.851935 93.786 170.4325
994.003071 93.793 170.5518
1001.206027 93.810 170.7007
1008.461179 93.839 170.8682
1015.768904 93.878 171.0424
1023.129584 93.929 171.2125
1030.543603 93.990 171.3696
1038.011347 94.062 171.5083
1045.533205 94.143 171.6261
1053.109569 94.234 171.7233
1060.740836 94.333 171.8020
1068.427401 94.439 171.8655
1076.169666 94.552 171.9169
1083.968035 94.670 171.9588
1091.822915 94.792 171.9924
1099.734713 94.917 172.0173
1107.703844 95.043 172.0323
1115.730723 95.168 172.0350
1123.815768 95.290 172.0234
1131.959400 95.407 171.9960
1140.162045 95.519 171.9519
1148.424129 95.624 171.8911
1156.746083 95.722 171.8144
1165.128342 95.813 171.7233
1173.571343 95.899 171.6199
1182.075524 95.979 171.5064
1190.641331 96.056 171.3853
1199.269209 96.130 171.2586
1207.959608 96.202 171.1278
1216.712981 96.274 170.9935
1225.529785 96.345 170.8552
1234.410479 96.416 170.7114
1243.355526 96.487 170.5602
1252.365393 96.557 170.3994
1261.440549 96.624 170.2275
1270.581467 96.688 170.0439
1279.788624 96.748 169.8491
1289.062500 96.803 169.6443
1298.403578 96.852 169.4317
1307.812346 96.895 169.2136
1317.289293 96.933 168.9925
1326.834914 96.964 168.7712
1336.449707 96.990 168.5526
1346.134173 97.011 168.3396
1355.888816 97.026 168.1355
1365.714145 97.037 167.9429
1375.610673 97.044 167.7640
1385.578915 97.048 167.5997
1395.619391 97.049 167.4497
1405.732624 97.047 167.3129
1415.919142 97.043 167.1876
1426.179476 97.037 167.0716
1436.514160 97.031 166.9634
1446.923734 97.023 166.8619
1457.408740 97.016 166.7668
1467.969724 97.010 166.6782
1478.607238 97.006 166.5957
1489.321836 97.005 166.5188
1500.114076 97.007 166.4457
1510.984521 97.013 166.3741
1521.933737 97.023 166.3014
1532.962297 97.036 166.2255
1544.070773 97.052 166.1453
1555.259747 97.070 166.0608
1566.529800 97.089 165.9732
1577.881521 97.108 165.8850
1589.315501 97.126 165.7992
1600.832336 97.143 165.7195
1612.432627 97.157 165.6500
1624.116978 97.170 165.5943
1635.886000 97.182 165.5561
1647.740304 97.193 165.5376
1659.680509 97.204 165.5396
1671.707238 97.216 165.5605
1683.821118 97.231 165.5966
1696.022780 97.248 165.6420
1708.312860 97.268 165.6893
1720.692000 97.291 165.7314
1733.160843 97.317 165.7623
1745.720041 97.344 165.7787
1758.370248 97.371 165.7802
1771.112124 97.397 165.7682
1783.946332 97.421 165.7465
1796.873543 97.443 165.7198
1809.894429 97.460 165.6932
1823.009670 97.474 165.6722
1836.219950 97.484 165.6613
1849.525956 97.491 165.6645
1862.928384 97.494 165.6846
1876.427931 97.495 165.7229
1890.025301 97.495 165.7792
1903.721204 97.495 165.8521
1917.516352 97.494 165.9393
1931.411466 97.493 166.0373
1945.407270 97.493 166.1424
1959.504493 97.491 166.2511
1973.703870 97.488 166.3610
1988.006142 97.482 166.4711
2002.412054 97.471 166.5819
2016.922357 97.455 166.6950
2031.537808 97.432 166.8134
2046.259169 97.401 166.9410
2061.087206 97.363 167.0817
2076.022694 97.316 167.2388
2091.066410 97.262 167.4139
2106.219139 97.202 167.6071
2121.481671 97.137 167.8165
2136.854802 97.069 168.0389
2152.339333 96.999 168.2697
2167.936071 96.929 168.5038
2183.645829 96.861 168.7364
2199.469427 96.795 168.9626
2215.407689 96.732 169.1791
2231.461446 96.673 169.3834
2247.631536 96.618 169.5746
2263.918800 96.568 169.7527
2280.324089 96.523 169.9186
2296.848258 96.481 170.0738
2313.492167 96.444 170.2193
2330.256685 96.410 170.3560
2347.142685 96.380 170.4841
2364.151049 96.353 170.6040
2381.282662 96.329 170.7156
2398.538418 96.307 170.8188
2415.919216 96.287 170.9134
2433.425962 96.270 170.9986
2451.059570 96.254 171.0741
2468.820958 96.241 171.1395
2486.711052 96.230 171.1953
2504.730786 96.221 171.2422
2522.881098 96.215 171.2812
2541.162934 96.212 171.3140
2559.577248 96.212 171.3423
2578.125000 96.217 171.3682
2596.807157 96.226 171.3941
2615.624692 96.242 171.4221
2634.578586 96.265 171.4548
2653.669829 96.295 171.4944
2672.899414 96.335 171.5426
2692.268345 96.385 171.6007
2711.777632 96.444 171.6693
2731.428290 96.513 171.7486
2751.221345 96.591 171.8388
2771.157829 96.678 171.9403
2791.238781 96.771 172.0539
2811.465248 96.870 172.1804
2831.838284 96.973 172.3206
2852.358952 97.079 172.4739
2873.028321 97.185 172.6380
2893.847468 97.291 172.8092
2914.817480 97.396 172.9825
2935.939449 97.497 173.1523
2957.214476 97.594 173.3127
2978.643672 97.685 173.4579
3000.228152 97.769 173.5830
3021.969041 97.846 173.6841
3043.867475 97.914 173.7599
3065.924593 97.972 173.8108
3088.141547 98.022 173.8395
3110.519493 98.064 173.8497
3133.059600 98.097 173.8450
3155.763041 98.123 173.8278
3178.631001 98.144 173.7996
3201.664672 98.159 173.7602
3224.865254 98.171 173.7092
3248.233957 98.180 173.6459
3271.771999 98.185 173.5698
3295.480608 98.188 173.4811
3319.361019 98.189 173.3804
3343.414477 98.187 173.2689
3367.642236 98.182 173.1486
3392.045560 98.176 173.0225
3416.625721 98.167 172.8939
3441.383999 98.156 172.7663
3466.321686 98.144 172.6430
3491.440082 98.132 172.5272
3516.740496 98.119 172.4218
3542.224247 98.108 172.3295
3567.892664 98.100 172.2523
3593.747085 98.095 172.1913
3619.788858 98.095 172.1461
3646.019340 98.101 172.1156
3672.439900 98.113 172.0978
3699.051913 98.132 172.0907
3725.856768 98.159 172.0921
3752.855862 98.193 172.0996
3780.050603 98.234 172.1110
3807.442408 98.282 172.1239
3835.032705 98.337 172.1361
3862.822933 98.399 172.1461
3890.814540 98.465 172.1525
3919.008986 98.537 172.1536
3947.407741 98.614 172.1479
3976.012284 98.695 172.1333
4004.824108 98.779 172.1074
4033.844715 98.866 172.0676
4063.075616 98.955 172.0111
4092.518337 99.046 171.9348
4122.174412 99.138 171.8357
4152.045387 99.231 171.7107
4182.132820 99.323 171.5571
4212.438278 99.415 171.3724
4242.963342 99.505 171.1543
4273.709604 99.592 170.9013
4304.678665 99.677 170.6124
4335.872141 99.757 170.2872
4367.291658 99.832 169.9263
4398.938854 99.900 169.5306
4430.815378 99.961 169.1023
4462.922893 100.014 168.6444
4495.263072 100.058 168.1606
4527.837601 100.091 167.6550
4560.648179 100.114 167.1320
4593.696515 100.125 166.5959
4626.984334 100.127 166.0508
4660.513370 100.117 165.5000
4694.285371 100.098 164.9458
4728.302098 100.071 164.3896
4762.565324 100.036 163.8318
4797.076835 99.995 163.2714
4831.838432 99.949 162.7065
4866.851925 99.901 162.1339
4902.119140 99.850 161.5493
4937.641916 99.800 160.9474
4973.422105 99.749 160.3220
5009.461572 99.700 159.6666
5045.762195 99.652 158.9748
5082.325868 99.604 158.2404
5119.154496 99.557 157.4582
5156.250000 99.508 156.6242
5193.614313 99.456 155.7363
5231.249383 99.399 154.7941
5269.157173 99.336 153.8000
5307.339658 99.263 152.7580
5345.798829 99.178 151.6743
5384.536691 99.080 150.5573
5423.555263 98.966 149.4174
5462.856580 98.835 148.2668
5502.442691 98.685 147.1201
5542.315659 98.515 145.9930
5582.477563 98.324 144.9025
5622.930497 98.112 143.8662
5663.676569 97.881 142.9019
5704.717904 97.630 142.0277
5746.056642 97.361 141.2621
5787.694937 97.076 140.6239
5829.634960 96.777 140.1327
5871.878898 96.466 139.8087
5914.428953 96.146 139.6728
5957.287343 95.821 139.7463
6000.456303 95.494 140.0491
6043.938083 95.170 140.5984
6087.734950 94.854 141.4055
6131.849187 94.551 142.4732
6176.283094 94.265 143.7931
6221.038987 94.003 145.3440
6266.119200 93.768 147.0913
6311.526083 93.563 148.9887
6357.262002 93.387 150.9816
6403.329344 93.242 153.0121
6449.730508 93.123 155.0247
6496.467914 93.028 156.9716
6543.543998 92.952 158.8165
6590.961215 92.889 160.5356
6638.722037 92.837 162.1180
6686.828954 92.789 163.5637
6735.284473 92.744 164.8818
6784.091120 92.697 166.0884
6833.251441 92.649 167.2041
6882.767998 92.597 168.2522
6932.643372 92.543 169.2566
6982.880164 92.487 170.2398
7033.480992 92.430 171.2209
7084.448495 92.376 172.2150
7135.785329 92.325 173.2320
7187.494171 92.280 174.2776
7239.577717 92.242 175.3539
7292.038681 92.212 176.4604
7344.879799 92.191 177.5953
7398.103826 92.177 178.7563
7451.713536 92.172 179.9406
7505.711724 92.173 -178.8546
7560.101205 92.180 -177.6332
7614.884815 92.191 -176.4009
7670.065409 92.207 -175.1661
7725.645865 92.225 -173.9400
7781.629080 92.245 -172.7373
7838.017972 92.265 -171.5753
7894.815481 92.284 -170.4718
7952.024569 92.299 -169.4431
8009.648217 92.308 -168.5009
8067.689429 92.307 -167.6492
8126.151233 92.295 -166.8822
8185.036674 92.266 -166.1823
8244.348824 92.220 -165.5198
8304.090774 92.154 -164.8531
8364.265639 92.069 -164.1315
8424.876556 91.969 -163.2995
8485.926684 91.858 -162.3035
8547.419207 91.744 -161.1009
8609.357330 91.639 -159.6693
8671.744282 91.554 -158.0143
8734.583316 91.502 -156.1722
8797.877707 91.491 -154.2065
8861.630756 91.529 -152.1976
8925.845785 91.618 -150.2292
8990.526143 91.757 -148.3767
9055.675202 91.941 -146.6994
9121.296357 92.163 -145.2395
9187.393031 92.416 -144.0247
9253.968668 92.693 -143.0721
9321.026740 92.986 -142.3936
9388.570742 93.289 -141.9979
9456.604196 93.593 -141.8925
9525.130648 93.893 -142.0837
9594.153671 94.181 -142.5758
9663.676863 94.450 -143.3696
9733.703850 94.695 -144.4609
9804.238280 94.909 -145.8391
9875.283832 95.085 -147.4866
9946.844210 95.220 -149.3778
10018.923143 95.308 -151.4798
10091.524390 95.345 -153.7530
10164.651736 95.330 -156.1518
10238.308993 95.263 -158.6273
10312.500000 95.142 -161.1298
10387.228626 94.971 -163.6105
10462.498767 94.753 -166.0251
10538.314345 94.492 -168.3352
10614.679315 94.194 -170.5099
10691.597657 93.863 -172.5265
10769.073381 93.507 -174.3711
10847.110526 93.129 -176.0377
10925.713161 92.735 -177.5280
11004.885382 92.329 -178.8502
11084.631318 91.914 179.9827
11164.955126 91.492 178.9540
11245.860993 91.063 178.0459
11327.353138 90.628 177.2402
11409.435808 90.187 176.5212
11492.113283 89.739 175.8773
11575.389873 89.281 175.3024
11659.269920 88.814 174.7975
11743.757796 88.336 174.3713
11828.857906 87.846 174.0399
11914.574686 87.346 173.8260
12000.912606 86.837 173.7563
12087.876166 86.324 173.8577
12175.469900 85.812 174.1522
12263.698373 85.311 174.6499
12352.566187 84.831 175.3425
12442.077974 84.385 176.1967
12532.238400 83.988 177.1505
12623.052165 83.655 178.1155
12714.524005 83.399 178.9833
12806.658687 83.229 179.6373
12899.461015 83.149 179.9645
12992.935827 83.159 179.8654
13087.087996 83.254 179.2596
13181.922430 83.424 178.0875
13277.444074 83.659 176.3077
13373.657907 83.947 173.8947
13470.568945 84.276 170.8336
13568.182241 84.635 167.1177
13666.502883 85.012 162.7455
13765.535996 85.398 157.7200
13865.286744 85.782 152.0495
13965.760328 86.152 145.7493
14066.961984 86.498 138.8448
14168.896989 86.808 131.3743
14271.570658 87.073 123.3920
14374.988342 87.282 114.9702
14479.155433 87.427 106.1995
14584.077362 87.500 97.1870
14689.759598 87.496 88.0524
14796.207652 87.414 78.9208
14903.427072 87.254 69.9145
15011.423448 87.017 61.1460
15120.202410 86.710 52.7115
15229.769630 86.340 44.6877
15340.130819 85.915 37.1295
15451.291730 85.445 30.0706
15563.258160 84.942 23.5237
15676.035944 84.418 17.4817
15789.630962 83.886 11.9202
15904.049137 83.360 6.7988
16019.296433 82.853 2.0649
16135.378859 82.376 -2.3425
16252.302465 81.940 -6.4890
16370.073348 81.549 -10.4402
16488.697648 81.206 -14.2571
16608.181548 80.910 -17.9929
16728.531278 80.654 -21.6890
16849.753112 80.432 -25.3730
16971.853368 80.234 -29.0566
17094.838414 80.055 -32.7357
17218.714660 79.890 -36.3939
17343.488565 79.741 -40.0090
17469.166632 79.616 -43.5651
17595.755415 79.531 -47.0649
17723.261512 79.504 -50.5433
17851.691571 79.550 -54.0725
17981.052287 79.683 -57.7586
18111.350404 79.901 -61.7272
18242.592715 80.194 -66.1046
18374.786062 80.543 -71.0007
18507.937336 80.925 -76.4948
18642.053479 81.316 -82.6263
18777.141484 81.697 -89.3849
18913.208391 82.049 -96.6982
19050.261296 82.361 -104.4181
19188.307342 82.626 -112.3134
19327.353727 82.842 -120.0739
19467.407699 83.009 -127.3336
19608.476560 83.133 -133.7094
19750.567664 83.218 -138.8438
19893.688419 83.271 -142.4415
20037.846286 83.296 -144.2941
