* Measurement data measured by REW V5.31.3
* Source: EXCL: Headset (USB-C to 3.5mm Headphone Jack Adapter), MICROPHONE (Master Volume), 0, volume: 0.260
* Format: 256k Log Swept Sine, 1 sweep at -12.0 dBFS with no timing reference
* Dated: Feb 9, 2025 9:34:48 PM
* REW Settings:
*  C-weighting compensation: Off
*  Target level: 75.0 dB
* Note: ; 
* Measurement: HD650 (Worn) L4
* Smoothing: 1/6 octave
* Frequency Step: 96 ppo
* Start Frequency: 20.0 Hz
*
* Freq(Hz) SPL(dB) Phase(degrees)
20.141602 90.533 -39.5876
20.287556 90.537 -39.8114
20.434568 90.541 -40.1154
20.582645 90.542 -40.4956
20.731796 90.538 -40.9474
20.882027 90.527 -41.4654
21.033346 90.507 -42.0434
21.185763 90.477 -42.6744
21.339284 90.438 -43.3503
21.493917 90.391 -44.0624
21.649671 90.336 -44.8011
21.806553 90.276 -45.5569
21.964572 90.213 -46.3200
22.123737 90.149 -47.0815
22.284054 90.087 -47.8337
22.445534 90.030 -48.5703
22.608183 89.980 -49.2867
22.772012 89.939 -49.9806
22.937027 89.907 -50.6512
23.103238 89.887 -51.2994
23.270654 89.877 -51.9270
23.439282 89.879 -52.5364
23.609133 89.892 -53.1299
23.780215 89.916 -53.7094
23.952536 89.949 -54.2758
24.126106 89.990 -54.8292
24.300934 90.040 -55.3688
24.477028 90.098 -55.8935
24.654399 90.162 -56.4017
24.833055 90.232 -56.8924
25.013005 90.307 -57.3654
25.194260 90.387 -57.8219
25.376828 90.470 -58.2643
25.560719 90.556 -58.6968
25.745942 90.644 -59.1246
25.932508 90.731 -59.5539
26.120426 90.818 -59.9912
26.309705 90.901 -60.4425
26.500356 90.981 -60.9130
26.692388 91.056 -61.4065
26.885812 91.124 -61.9254
27.080638 91.186 -62.4703
27.276876 91.242 -63.0402
27.474535 91.292 -63.6331
27.673627 91.337 -64.2458
27.874161 91.380 -64.8742
28.076149 91.423 -65.5137
28.279600 91.469 -66.1594
28.484526 91.522 -66.8060
28.690937 91.584 -67.4480
28.898843 91.658 -68.0800
29.108256 91.748 -68.6964
29.319186 91.854 -69.2923
29.531645 91.976 -69.8636
29.745644 92.115 -70.4076
29.961193 92.269 -70.9232
30.178304 92.434 -71.4116
30.396989 92.606 -71.8764
30.617258 92.782 -72.3236
30.839123 92.957 -72.7611
31.062596 93.125 -73.1982
31.287688 93.281 -73.6447
31.514412 93.420 -74.1100
31.742778 93.539 -74.6018
31.972800 93.633 -75.1252
32.204488 93.700 -75.6823
32.437855 93.738 -76.2716
32.672913 93.745 -76.8884
32.909674 93.722 -77.5248
33.148151 93.669 -78.1714
33.388356 93.589 -78.8177
33.630302 93.485 -79.4538
33.874001 93.361 -80.0716
34.119466 93.222 -80.6660
34.366710 93.073 -81.2350
34.615745 92.919 -81.7808
34.866585 92.766 -82.3083
35.119243 92.619 -82.8248
35.373731 92.483 -83.3386
35.630064 92.361 -83.8576
35.888254 92.255 -84.3880
36.148315 92.169 -84.9337
36.410261 92.102 -85.4963
36.674104 92.056 -86.0750
36.939860 92.031 -86.6673
37.207542 92.027 -87.2696
37.477163 92.044 -87.8776
37.748738 92.082 -88.4869
38.022281 92.141 -89.0930
38.297806 92.220 -89.6915
38.575327 92.320 -90.2785
38.854860 92.441 -90.8504
39.136419 92.581 -91.4048
39.420017 92.741 -91.9405
39.705671 92.919 -92.4579
39.993395 93.115 -92.9590
40.283203 93.326 -93.4470
40.575112 93.551 -93.9256
40.869136 93.787 -94.3990
41.165290 94.032 -94.8705
41.463591 94.284 -95.3426
41.764053 94.539 -95.8169
42.066693 94.796 -96.2939
42.371525 95.053 -96.7733
42.678567 95.307 -97.2544
42.987834 95.557 -97.7361
43.299341 95.802 -98.2173
43.613106 96.038 -98.6971
43.929145 96.265 -99.1749
44.247473 96.482 -99.6505
44.568109 96.686 -100.1243
44.891068 96.877 -100.5970
45.216367 97.054 -101.0698
45.544023 97.216 -101.5441
45.874054 97.362 -102.0211
46.206476 97.491 -102.5016
46.541307 97.605 -102.9859
46.878565 97.701 -103.4735
47.218266 97.782 -103.9633
47.560429 97.847 -104.4533
47.905072 97.897 -104.9416
48.252212 97.933 -105.4259
48.601867 97.955 -105.9047
48.954056 97.966 -106.3771
49.308798 97.966 -106.8431
49.666109 97.957 -107.3033
50.026010 97.942 -107.7587
50.388520 97.922 -108.2109
50.753656 97.898 -108.6609
51.121437 97.874 -109.1100
51.491884 97.850 -109.5587
51.865016 97.828 -110.0074
52.240851 97.810 -110.4558
52.619410 97.796 -110.9036
53.000712 97.786 -111.3503
53.384777 97.780 -111.7952
53.771625 97.778 -112.2380
54.161276 97.778 -112.6781
54.553751 97.781 -113.1155
54.949070 97.784 -113.5501
55.347254 97.787 -113.9823
55.748323 97.790 -114.4125
56.152298 97.790 -114.8413
56.559201 97.788 -115.2695
56.969052 97.783 -115.6979
57.381873 97.775 -116.1272
57.797686 97.764 -116.5581
58.216512 97.751 -116.9915
58.638373 97.735 -117.4283
59.063291 97.718 -117.8694
59.491288 97.699 -118.3157
59.922386 97.680 -118.7675
60.356608 97.660 -119.2243
60.793977 97.640 -119.6849
61.234515 97.620 -120.1471
61.678246 97.601 -120.6088
62.125192 97.582 -121.0682
62.575377 97.563 -121.5243
63.028824 97.545 -121.9767
63.485557 97.528 -122.4260
63.945599 97.513 -122.8728
64.408975 97.500 -123.3180
64.875709 97.488 -123.7624
65.345825 97.479 -124.2063
65.819348 97.473 -124.6500
66.296302 97.470 -125.0933
66.776713 97.470 -125.5361
67.260604 97.473 -125.9783
67.748002 97.478 -126.4200
68.238932 97.486 -126.8614
68.733420 97.497 -127.3028
69.231490 97.509 -127.7445
69.733170 97.524 -128.1867
70.238485 97.539 -128.6294
70.747463 97.556 -129.0724
71.260128 97.574 -129.5155
71.776508 97.593 -129.9587
72.296630 97.613 -130.4019
72.820521 97.634 -130.8453
73.348209 97.655 -131.2890
73.879720 97.677 -131.7333
74.415083 97.699 -132.1783
74.954326 97.721 -132.6236
75.497475 97.743 -133.0691
76.044561 97.765 -133.5140
76.595612 97.786 -133.9578
77.150655 97.806 -134.4001
77.709720 97.825 -134.8403
78.272837 97.841 -135.2782
78.840034 97.855 -135.7138
79.411342 97.865 -136.1473
79.986789 97.871 -136.5788
80.566406 97.874 -137.0086
81.150224 97.873 -137.4369
81.738272 97.868 -137.8637
82.330581 97.860 -138.2889
82.927182 97.851 -138.7125
83.528107 97.842 -139.1343
84.133386 97.834 -139.5544
84.743051 97.830 -139.9726
85.357134 97.832 -140.3890
85.975667 97.844 -140.8034
86.598682 97.869 -141.2159
87.226212 97.911 -141.6261
87.858289 97.972 -142.0338
88.494946 98.055 -142.4385
89.136217 98.161 -142.8397
89.782135 98.291 -143.2369
90.432733 98.444 -143.6299
91.088046 98.617 -144.0185
91.748108 98.807 -144.4031
92.412952 99.009 -144.7843
93.082615 99.217 -145.1627
93.757130 99.427 -145.5388
94.436533 99.633 -145.9129
95.120859 99.830 -146.2853
95.810144 100.015 -146.6561
96.504423 100.185 -147.0255
97.203734 100.337 -147.3937
97.908112 100.472 -147.7608
98.617595 100.590 -148.1267
99.332219 100.691 -148.4915
100.052021 100.778 -148.8550
100.777039 100.852 -149.2171
101.507311 100.915 -149.5777
102.242875 100.971 -149.9370
102.983769 101.020 -150.2949
103.730032 101.063 -150.6513
104.481702 101.101 -151.0064
105.238820 101.134 -151.3600
106.001424 101.162 -151.7122
106.769554 101.182 -152.0631
107.543250 101.194 -152.4129
108.322553 101.196 -152.7616
109.107503 101.186 -153.1089
109.898141 101.163 -153.4545
110.694508 101.126 -153.7977
111.496646 101.076 -154.1382
112.304596 101.013 -154.4755
113.118402 100.938 -154.8097
113.938104 100.853 -155.1409
114.763747 100.759 -155.4696
115.595372 100.661 -155.7961
116.433024 100.558 -156.1209
117.276746 100.454 -156.4446
118.126581 100.351 -156.7677
118.982575 100.250 -157.0906
119.844772 100.151 -157.4135
120.713217 100.055 -157.7362
121.587954 99.963 -158.0584
122.469031 99.872 -158.3795
123.356492 99.782 -158.6990
124.250384 99.692 -159.0166
125.150753 99.600 -159.3321
126.057647 99.504 -159.6455
126.971113 99.404 -159.9567
127.891198 99.299 -160.2658
128.817950 99.186 -160.5728
129.751418 99.068 -160.8779
130.691651 98.942 -161.1814
131.638696 98.812 -161.4835
132.592604 98.678 -161.7845
133.553425 98.542 -162.0842
134.521208 98.407 -162.3826
135.496004 98.276 -162.6792
136.477864 98.153 -162.9739
137.466839 98.041 -163.2661
138.462981 97.943 -163.5558
139.466340 97.861 -163.8426
140.476971 97.798 -164.1266
141.494925 97.754 -164.4080
142.520256 97.728 -164.6868
143.553016 97.719 -164.9635
144.593260 97.722 -165.2381
145.641043 97.736 -165.5109
146.696418 97.755 -165.7821
147.759441 97.776 -166.0520
148.830166 97.796 -166.3207
149.908651 97.811 -166.5885
150.994951 97.821 -166.8554
152.089123 97.823 -167.1215
153.191223 97.817 -167.3871
154.301310 97.806 -167.6521
155.419441 97.788 -167.9166
156.545674 97.768 -168.1808
157.680069 97.745 -168.4446
158.822683 97.721 -168.7081
159.973578 97.699 -168.9714
161.132813 97.678 -169.2346
162.300447 97.661 -169.4980
163.476543 97.646 -169.7618
164.661162 97.635 -170.0263
165.854364 97.627 -170.2915
167.056213 97.623 -170.5576
168.266772 97.623 -170.8245
169.486102 97.626 -171.0917
170.714268 97.634 -171.3589
171.951334 97.646 -171.6257
173.197364 97.663 -171.8918
174.452424 97.684 -172.1566
175.716578 97.709 -172.4198
176.989893 97.737 -172.6813
178.272434 97.767 -172.9409
179.564270 97.799 -173.1989
180.865467 97.831 -173.4553
182.176092 97.862 -173.7103
183.496216 97.891 -173.9640
184.825905 97.917 -174.2166
186.165229 97.940 -174.4681
187.514259 97.960 -174.7188
188.873065 97.976 -174.9687
190.241717 97.990 -175.2181
191.620287 98.001 -175.4670
193.008847 98.011 -175.7155
194.407468 98.019 -175.9633
195.816225 98.026 -176.2101
197.235190 98.033 -176.4556
198.664438 98.040 -176.6992
200.104042 98.045 -176.9403
201.554078 98.049 -177.1784
203.014622 98.052 -177.4131
204.485750 98.051 -177.6443
205.967538 98.048 -177.8724
207.460064 98.042 -178.0978
208.963405 98.032 -178.3212
210.477640 98.018 -178.5430
212.002848 98.001 -178.7636
213.539108 97.981 -178.9832
215.086500 97.958 -179.2019
216.645105 97.933 -179.4198
218.215005 97.906 -179.6371
219.796281 97.876 -179.8536
221.389015 97.844 179.9308
222.993292 97.809 179.7162
224.609193 97.771 179.5029
226.236804 97.729 179.2912
227.876209 97.682 179.0813
229.527494 97.630 178.8737
231.190745 97.572 178.6686
232.866048 97.509 178.4663
234.553491 97.440 178.2669
236.253163 97.367 178.0703
237.965150 97.289 177.8765
239.689544 97.208 177.6854
241.426433 97.125 177.4969
243.175909 97.040 177.3112
244.938062 96.955 177.1284
246.712984 96.870 176.9488
248.500768 96.787 176.7726
250.301507 96.705 176.6000
252.115295 96.627 176.4314
253.942226 96.551 176.2672
255.782396 96.480 176.1078
257.635901 96.414 175.9539
259.502837 96.353 175.8060
261.383301 96.297 175.6649
263.277392 96.248 175.5312
265.185209 96.205 175.4059
267.106850 96.168 175.2897
269.042417 96.138 175.1833
270.992009 96.114 175.0872
272.955729 96.096 175.0016
274.933678 96.083 174.9263
276.925961 96.076 174.8607
278.932681 96.073 174.8036
280.953942 96.074 174.7532
282.989850 96.080 174.7072
285.040511 96.090 174.6634
287.106032 96.104 174.6192
289.186521 96.123 174.5724
291.282086 96.148 174.5214
293.392836 96.179 174.4645
295.518881 96.216 174.4012
297.660333 96.260 174.3310
299.817302 96.309 174.2541
301.989902 96.363 174.1710
304.178245 96.421 174.0821
306.382446 96.480 173.9884
308.602620 96.539 173.8906
310.838882 96.596 173.7897
313.091348 96.650 173.6865
315.360137 96.698 173.5818
317.645367 96.740 173.4765
319.947156 96.774 173.3712
322.265625 96.799 173.2665
324.600895 96.815 173.1628
326.953086 96.821 173.0604
329.322323 96.817 172.9592
331.708729 96.802 172.8593
334.112427 96.776 172.7608
336.533543 96.740 172.6636
338.972204 96.694 172.5678
341.428536 96.638 172.4735
343.902668 96.573 172.3809
346.394729 96.501 172.2901
348.904848 96.423 172.2014
351.433156 96.341 172.1148
353.979786 96.257 172.0306
356.544869 96.174 171.9490
359.128540 96.095 171.8699
361.730934 96.021 171.7936
364.352185 95.957 171.7197
366.992431 95.906 171.6482
369.651810 95.868 171.5787
372.330459 95.847 171.5111
375.028519 95.844 171.4449
377.746130 95.859 171.3799
380.483434 95.890 171.3157
383.240574 95.938 171.2524
386.017693 95.999 171.1899
388.814937 96.072 171.1282
391.632450 96.153 171.0676
394.470380 96.241 171.0082
397.328875 96.331 170.9500
400.208084 96.422 170.8932
403.108157 96.513 170.8378
406.029245 96.601 170.7838
408.971500 96.686 170.7311
411.935076 96.768 170.6799
414.920127 96.847 170.6303
417.926810 96.923 170.5822
420.955280 96.997 170.5355
424.005695 97.071 170.4902
427.078215 97.143 170.4462
430.173000 97.216 170.4035
433.290211 97.289 170.3622
436.430010 97.362 170.3224
439.592562 97.435 170.2844
442.778031 97.506 170.2482
445.986583 97.576 170.2140
449.218386 97.641 170.1816
452.473607 97.700 170.1509
455.752418 97.753 170.1214
459.054987 97.797 170.0928
462.381489 97.832 170.0649
465.732096 97.856 170.0375
469.106983 97.870 170.0106
472.506325 97.874 169.9844
475.930301 97.867 169.9589
479.379088 97.852 169.9344
482.852867 97.829 169.9109
486.351817 97.798 169.8886
489.876123 97.762 169.8676
493.425968 97.721 169.8480
497.001536 97.676 169.8300
500.603014 97.627 169.8136
504.230589 97.575 169.7986
507.884452 97.520 169.7851
511.564792 97.462 169.7728
515.271802 97.402 169.7616
519.005673 97.339 169.7513
522.766602 97.275 169.7420
526.554785 97.211 169.7335
530.370418 97.148 169.7259
534.213700 97.089 169.7194
538.084833 97.034 169.7139
541.984018 96.987 169.7097
545.911457 96.947 169.7068
549.867357 96.918 169.7055
553.851922 96.897 169.7057
557.865362 96.886 169.7076
561.907884 96.882 169.7108
565.979700 96.884 169.7154
570.081022 96.890 169.7210
574.212064 96.898 169.7275
578.373042 96.905 169.7350
582.564171 96.911 169.7435
586.785671 96.912 169.7531
591.037762 96.909 169.7638
595.320665 96.899 169.7757
599.634604 96.883 169.7885
603.979804 96.860 169.8022
608.356491 96.830 169.8165
612.764893 96.794 169.8314
617.205240 96.753 169.8465
621.677763 96.707 169.8621
626.182696 96.659 169.8779
630.720274 96.609 169.8939
635.290733 96.560 169.9097
639.894312 96.513 169.9250
644.531250 96.470 169.9395
649.201789 96.433 169.9531
653.906173 96.402 169.9656
658.644647 96.378 169.9772
663.417457 96.362 169.9880
668.224854 96.352 169.9985
673.067086 96.348 170.0088
677.944408 96.349 170.0192
682.857073 96.352 170.0297
687.805336 96.356 170.0399
692.789457 96.361 170.0496
697.809695 96.363 170.0579
702.866312 96.363 170.0638
707.959571 96.360 170.0664
713.089738 96.352 170.0648
718.257080 96.339 170.0580
723.461867 96.322 170.0456
728.704370 96.300 170.0271
733.984862 96.274 170.0025
739.303619 96.244 169.9721
744.660918 96.210 169.9366
750.057038 96.173 169.8976
755.492260 96.132 169.8575
760.966869 96.088 169.8199
766.481148 96.041 169.7896
772.035387 95.989 169.7728
777.629873 95.933 169.7764
783.264900 95.873 169.8074
788.940760 95.808 169.8720
794.657750 95.740 169.9730
800.416168 95.669 170.1087
806.216313 95.597 170.2717
812.058489 95.523 170.4503
817.943000 95.449 170.6307
823.870152 95.374 170.8009
829.840255 95.298 170.9521
835.853619 95.220 171.0793
841.910559 95.140 171.1811
848.011390 95.058 171.2585
854.156430 94.975 171.3142
860.346000 94.891 171.3515
866.580422 94.806 171.3737
872.860020 94.722 171.3835
879.185124 94.639 171.3831
885.556062 94.560 171.3739
891.973166 94.485 171.3564
898.436771 94.415 171.3308
904.947215 94.351 171.2967
911.504835 94.295 171.2533
918.109975 94.246 171.1998
924.762978 94.207 171.1350
931.464192 94.176 171.0583
938.213966 94.154 170.9689
945.012651 94.140 170.8669
951.860602 94.134 170.7526
958.758176 94.133 170.6276
965.705733 94.137 170.4941
972.703635 94.145 170.3557
979.752246 94.155 170.2163
986.851935 94.166 170.0812
994.003071 94.178 169.9569
1001.206027 94.190 169.8508
1008.461179 94.202 169.7712
1015.768904 94.216 169.7268
1023.129584 94.233 169.7254
1030.543603 94.255 169.7729
1038.011347 94.285 169.8717
1045.533205 94.326 170.0199
1053.109569 94.380 170.2103
1060.740836 94.449 170.4316
1068.427401 94.532 170.6698
1076.169666 94.629 170.9104
1083.968035 94.738 171.1400
1091.822915 94.857 171.3482
1099.734713 94.981 171.5278
1107.703844 95.109 171.6753
1115.730723 95.236 171.7897
1123.815768 95.359 171.8727
1131.959400 95.478 171.9269
1140.162045 95.590 171.9559
1148.424129 95.694 171.9636
1156.746083 95.791 171.9536
1165.128342 95.881 171.9293
1173.571343 95.964 171.8936
1182.075524 96.042 171.8489
1190.641331 96.116 171.7974
1199.269209 96.187 171.7407
1207.959608 96.256 171.6801
1216.712981 96.325 171.6162
1225.529785 96.393 171.5494
1234.410479 96.461 171.4801
1243.355526 96.528 171.4084
1252.365393 96.594 171.3344
1261.440549 96.657 171.2580
1270.581467 96.718 171.1790
1279.788624 96.776 171.0971
1289.062500 96.829 171.0120
1298.403578 96.879 170.9235
1307.812346 96.924 170.8320
1317.289293 96.964 170.7378
1326.834914 97.000 170.6418
1336.449707 97.032 170.5450
1346.134173 97.060 170.4485
1355.888816 97.084 170.3536
1365.714145 97.105 170.2612
1375.610673 97.122 170.1716
1385.578915 97.136 170.0847
1395.619391 97.147 170.0001
1405.732624 97.155 169.9173
1415.919142 97.160 169.8365
1426.179476 97.162 169.7587
1436.514160 97.162 169.6857
1446.923734 97.159 169.6193
1457.408740 97.156 169.5616
1467.969724 97.153 169.5138
1478.607238 97.152 169.4768
1489.321836 97.152 169.4502
1500.114076 97.156 169.4327
1510.984521 97.163 169.4227
1521.933737 97.174 169.4182
1532.962297 97.188 169.4171
1544.070773 97.206 169.4178
1555.259747 97.226 169.4192
1566.529800 97.247 169.4212
1577.881521 97.269 169.4249
1589.315501 97.291 169.4324
1600.832336 97.312 169.4466
1612.432627 97.332 169.4704
1624.116978 97.351 169.5059
1635.886000 97.369 169.5546
1647.740304 97.386 169.6167
1659.680509 97.403 169.6921
1671.707238 97.420 169.7801
1683.821118 97.438 169.8795
1696.022780 97.457 169.9890
1708.312860 97.477 170.1070
1720.692000 97.499 170.2316
1733.160843 97.523 170.3613
1745.720041 97.548 170.4942
1758.370248 97.576 170.6292
1771.112124 97.604 170.7654
1783.946332 97.632 170.9031
1796.873543 97.660 171.0433
1809.894429 97.687 171.1872
1823.009670 97.712 171.3362
1836.219950 97.736 171.4918
1849.525956 97.759 171.6559
1862.928384 97.779 171.8306
1876.427931 97.799 172.0173
1890.025301 97.818 172.2161
1903.721204 97.838 172.4255
1917.516352 97.858 172.6432
1931.411466 97.879 172.8663
1945.407270 97.901 173.0923
1959.504493 97.923 173.3182
1973.703870 97.943 173.5414
1988.006142 97.963 173.7594
2002.412054 97.979 173.9704
2016.922357 97.990 174.1737
2031.537808 97.995 174.3700
2046.259169 97.994 174.5610
2061.087206 97.984 174.7494
2076.022694 97.967 174.9382
2091.066410 97.942 175.1304
2106.219139 97.909 175.3283
2121.481671 97.871 175.5330
2136.854802 97.828 175.7438
2152.339333 97.782 175.9594
2167.936071 97.734 176.1775
2183.645829 97.687 176.3956
2199.469427 97.641 176.6112
2215.407689 97.598 176.8220
2231.461446 97.559 177.0257
2247.631536 97.524 177.2209
2263.918800 97.494 177.4064
2280.324089 97.469 177.5815
2296.848258 97.448 177.7458
2313.492167 97.433 177.8990
2330.256685 97.421 178.0414
2347.142685 97.414 178.1729
2364.151049 97.410 178.2935
2381.282662 97.410 178.4027
2398.538418 97.412 178.4994
2415.919216 97.418 178.5817
2433.425962 97.426 178.6482
2451.059570 97.437 178.6976
2468.820958 97.450 178.7294
2486.711052 97.466 178.7435
2504.730786 97.484 178.7403
2522.881098 97.505 178.7209
2541.162934 97.528 178.6871
2559.577248 97.555 178.6408
2578.125000 97.586 178.5839
2596.807157 97.623 178.5179
2615.624692 97.665 178.4442
2634.578586 97.714 178.3634
2653.669829 97.771 178.2761
2672.899414 97.837 178.1820
2692.268345 97.910 178.0811
2711.777632 97.992 177.9734
2731.428290 98.080 177.8594
2751.221345 98.175 177.7403
2771.157829 98.275 177.6179
2791.238781 98.378 177.4944
2811.465248 98.481 177.3726
2831.838284 98.584 177.2557
2852.358952 98.684 177.1474
2873.028321 98.780 177.0511
2893.847468 98.869 176.9707
2914.817480 98.952 176.9097
2935.939449 99.026 176.8715
2957.214476 99.091 176.8593
2978.643672 99.147 176.8755
3000.228152 99.194 176.9213
3021.969041 99.233 176.9972
3043.867475 99.266 177.1015
3065.924593 99.292 177.2307
3088.141547 99.314 177.3796
3110.519493 99.333 177.5409
3133.059600 99.350 177.7064
3155.763041 99.366 177.8671
3178.631001 99.381 178.0150
3201.664672 99.396 178.1431
3224.865254 99.411 178.2465
3248.233957 99.425 178.3221
3271.771999 99.439 178.3692
3295.480608 99.451 178.3883
3319.361019 99.461 178.3812
3343.414477 99.470 178.3504
3367.642236 99.477 178.2987
3392.045560 99.481 178.2294
3416.625721 99.484 178.1461
3441.383999 99.484 178.0522
3466.321686 99.483 177.9520
3491.440082 99.480 177.8495
3516.740496 99.476 177.7489
3542.224247 99.471 177.6545
3567.892664 99.467 177.5706
3593.747085 99.465 177.5013
3619.788858 99.465 177.4504
3646.019340 99.467 177.4214
3672.439900 99.474 177.4178
3699.051913 99.486 177.4420
3725.856768 99.503 177.4960
3752.855862 99.527 177.5803
3780.050603 99.558 177.6944
3807.442408 99.597 177.8364
3835.032705 99.644 178.0034
3862.822933 99.700 178.1916
3890.814540 99.763 178.3971
3919.008986 99.835 178.6161
3947.407741 99.914 178.8448
3976.012284 100.000 179.0797
4004.824108 100.094 179.3173
4033.844715 100.194 179.5538
4063.075616 100.300 179.7852
4092.518337 100.412 -179.9931
4122.174412 100.530 -179.7861
4152.045387 100.653 -179.5995
4182.132820 100.781 -179.4394
4212.438278 100.914 -179.3123
4242.963342 101.051 -179.2250
4273.709604 101.191 -179.1843
4304.678665 101.334 -179.1965
4335.872141 101.477 -179.2672
4367.291658 101.620 -179.4013
4398.938854 101.762 -179.6028
4430.815378 101.900 -179.8743
4462.922893 102.033 179.7828
4495.263072 102.159 179.3683
4527.837601 102.277 178.8834
4560.648179 102.385 178.3303
4593.696515 102.483 177.7121
4626.984334 102.570 177.0325
4660.513370 102.644 176.2958
4694.285371 102.706 175.5065
4728.302098 102.757 174.6693
4762.565324 102.796 173.7886
4797.076835 102.824 172.8682
4831.838432 102.843 171.9114
4866.851925 102.852 170.9207
4902.119140 102.853 169.8975
4937.641916 102.848 168.8427
4973.422105 102.835 167.7565
5009.461572 102.817 166.6387
5045.762195 102.793 165.4888
5082.325868 102.762 164.3067
5119.154496 102.725 163.0923
5156.250000 102.681 161.8470
5193.614313 102.628 160.5729
5231.249383 102.565 159.2737
5269.157173 102.490 157.9544
5307.339658 102.403 156.6216
5345.798829 102.302 155.2836
5384.536691 102.185 153.9503
5423.555263 102.052 152.6332
5462.856580 101.901 151.3452
5502.442691 101.731 150.0996
5542.315659 101.544 148.9102
5582.477563 101.339 147.7902
5622.930497 101.118 146.7527
5663.676569 100.882 145.8095
5704.717904 100.632 144.9720
5746.056642 100.370 144.2509
5787.694937 100.099 143.6562
5829.634960 99.822 143.1974
5871.878898 99.540 142.8838
5914.428953 99.257 142.7243
5957.287343 98.974 142.7280
6000.456303 98.696 142.9036
6043.938083 98.424 143.2594
6087.734950 98.161 143.8019
6131.849187 97.911 144.5345
6176.283094 97.676 145.4548
6221.038987 97.459 146.5533
6266.119200 97.263 147.8120
6311.526083 97.089 149.2035
6357.262002 96.939 150.6925
6403.329344 96.813 152.2381
6449.730508 96.710 153.7972
6496.467914 96.628 155.3284
6543.543998 96.564 156.7958
6590.961215 96.516 158.1716
6638.722037 96.480 159.4367
6686.828954 96.454 160.5813
6735.284473 96.435 161.6028
6784.091120 96.423 162.5041
6833.251441 96.416 163.2912
6882.767998 96.414 163.9712
6932.643372 96.417 164.5502
6982.880164 96.427 165.0324
7033.480992 96.444 165.4195
7084.448495 96.468 165.7101
7135.785329 96.499 165.9004
7187.494171 96.538 165.9846
7239.577717 96.583 165.9555
7292.038681 96.632 165.8048
7344.879799 96.685 165.5243
7398.103826 96.737 165.1058
7451.713536 96.786 164.5415
7505.711724 96.828 163.8240
7560.101205 96.862 162.9463
7614.884815 96.882 161.9014
7670.065409 96.887 160.6826
7725.645865 96.872 159.2828
7781.629080 96.834 157.6953
7838.017972 96.770 155.9139
7894.815481 96.677 153.9336
7952.024569 96.551 151.7511
8009.648217 96.388 149.3669
8067.689429 96.185 146.7867
8126.151233 95.938 144.0233
8185.036674 95.645 141.0995
8244.348824 95.302 138.0514
8304.090774 94.910 134.9326
8364.265639 94.472 131.8233
8424.876556 93.992 128.8469
8485.926684 93.483 126.2141
8547.419207 92.964 124.3573
8609.357330 92.459 124.4734
8671.744282 92.003 132.1706
8734.583316 91.630 -151.9980
8797.877707 91.375 -96.3532
8861.630756 91.260 -90.2953
8925.845785 91.294 -89.7546
8990.526143 91.466 -90.6126
9055.675202 91.753 -91.9390
9121.296357 92.127 -93.4245
9187.393031 92.559 -94.9507
9253.968668 93.025 -96.4753
9321.026740 93.508 -97.9913
9388.570742 93.992 -99.5096
9456.604196 94.467 -101.0498
9525.130648 94.926 -102.6353
9594.153671 95.363 -104.2892
9663.676863 95.773 -106.0321
9733.703850 96.154 -107.8802
9804.238280 96.501 -109.8443
9875.283832 96.813 -111.9295
9946.844210 97.088 -114.1347
10018.923143 97.325 -116.4533
10091.524390 97.522 -118.8732
10164.651736 97.680 -121.3771
10238.308993 97.798 -123.9436
10312.500000 97.877 -126.5478
10387.228626 97.920 -129.1619
10462.498767 97.927 -131.7573
10538.314345 97.902 -134.3062
10614.679315 97.848 -136.7832
10691.597657 97.771 -139.1685
10769.073381 97.674 -141.4489
10847.110526 97.564 -143.6207
10925.713161 97.445 -145.6897
11004.885382 97.323 -147.6721
11084.631318 97.199 -149.5931
11164.955126 97.077 -151.4848
11245.860993 96.957 -153.3837
11327.353138 96.839 -155.3270
11409.435808 96.720 -157.3489
11492.113283 96.596 -159.4778
11575.389873 96.464 -161.7335
11659.269920 96.318 -164.1261
11743.757796 96.154 -166.6555
11828.857906 95.968 -169.3127
11914.574686 95.756 -172.0816
12000.912606 95.516 -174.9411
12087.876166 95.247 -177.8681
12175.469900 94.948 179.1610
12263.698373 94.618 176.1691
12352.566187 94.259 173.1774
12442.077974 93.870 170.2060
12532.238400 93.452 167.2738
12623.052165 93.005 164.3991
12714.524005 92.530 161.5995
12806.658687 92.028 158.8915
12899.461015 91.500 156.2897
12992.935827 90.948 153.8046
13087.087996 90.376 151.4407
13181.922430 89.788 149.1939
13277.444074 89.189 147.0495
13373.657907 88.586 144.9811
13470.568945 87.987 142.9509
13568.182241 87.399 140.9109
13666.502883 86.831 138.8063
13765.535996 86.290 136.5794
13865.286744 85.782 134.1730
13965.760328 85.311 131.5350
14066.961984 84.880 128.6205
14168.896989 84.488 125.3941
14271.570658 84.132 121.8309
14374.988342 83.808 117.9172
14479.155433 83.510 113.6512
14584.077362 83.230 109.0438
14689.759598 82.958 104.1191
14796.207652 82.689 98.9143
14903.427072 82.413 93.4790
15011.423448 82.126 87.8732
15120.202410 81.824 82.1653
15229.769630 81.505 76.4290
15340.130819 81.170 70.7402
15451.291730 80.823 65.1741
15563.258160 80.470 59.8022
15676.035944 80.122 54.6878
15789.630962 79.793 49.8802
15904.049137 79.503 45.4044
16019.296433 79.274 41.2502
16135.378859 79.128 37.3635
16252.302465 79.084 33.6470
16370.073348 79.147 29.9713
16488.697648 79.308 26.1956
16608.181548 79.547 22.1904
16728.531278 79.835 17.8547
16849.753112 80.140 13.1254
16971.853368 80.432 7.9780
17094.838414 80.686 2.4238
17218.714660 80.881 -3.4955
17343.488565 81.001 -9.7125
17469.166632 81.033 -16.1390
17595.755415 80.968 -22.6707
17723.261512 80.804 -29.1908
17851.691571 80.537 -35.5747
17981.052287 80.169 -41.6938
18111.350404 79.704 -47.4186
18242.592715 79.150 -52.6235
18374.786062 78.516 -57.1926
18507.937336 77.814 -61.0261
18642.053479 77.060 -64.0477
18777.141484 76.274 -66.2123
18913.208391 75.481 -67.5114
19050.261296 74.707 -67.9790
19188.307342 73.985 -67.6999
19327.353727 73.345 -66.8207
19467.407699 72.815 -65.5529
19608.476560 72.409 -64.1531
19750.567664 72.128 -62.8769
19893.688419 71.957 -61.9268
20037.846286 71.878 -61.4261
