* Measurement data measured by REW V5.31.3
* Source: EXCL: Headset (USB-C to 3.5mm Headphone Jack Adapter), MICROPHONE (Master Volume), 0, volume: 0.260
* Format: 256k Log Swept Sine, 1 sweep at -12.0 dBFS with no timing reference
* Dated: Feb 9, 2025 9:43:13 PM
* REW Settings:
*  C-weighting compensation: Off
*  Target level: 75.0 dB
* Note: ; 
* Measurement: HD650 (Worn) R10
* Smoothing: 1/6 octave
* Frequency Step: 96 ppo
* Start Frequency: 20.0 Hz
*
* Freq(Hz) SPL(dB) Phase(degrees)
20.141602 86.486 -23.6627
20.287556 86.497 -23.9289
20.434568 86.510 -24.2841
20.582645 86.522 -24.7167
20.731796 86.530 -25.2142
20.882027 86.532 -25.7642
21.033346 86.527 -26.3561
21.185763 86.514 -26.9809
21.339284 86.492 -27.6321
21.493917 86.464 -28.3054
21.649671 86.430 -28.9988
21.806553 86.392 -29.7115
21.964572 86.352 -30.4436
22.123737 86.311 -31.1952
22.284054 86.270 -31.9656
22.445534 86.231 -32.7531
22.608183 86.193 -33.5543
22.772012 86.159 -34.3647
22.937027 86.128 -35.1779
23.103238 86.101 -35.9873
23.270654 86.080 -36.7855
23.439282 86.065 -37.5657
23.609133 86.058 -38.3220
23.780215 86.061 -39.0497
23.952536 86.074 -39.7460
24.126106 86.100 -40.4096
24.300934 86.138 -41.0411
24.477028 86.190 -41.6423
24.654399 86.254 -42.2160
24.833055 86.330 -42.7656
25.013005 86.416 -43.2944
25.194260 86.510 -43.8060
25.376828 86.610 -44.3036
25.560719 86.714 -44.7905
25.745942 86.819 -45.2697
25.932508 86.924 -45.7450
26.120426 87.027 -46.2203
26.309705 87.127 -46.7002
26.500356 87.223 -47.1898
26.692388 87.315 -47.6943
26.885812 87.401 -48.2186
27.080638 87.482 -48.7669
27.276876 87.557 -49.3420
27.474535 87.628 -49.9448
27.673627 87.696 -50.5740
27.874161 87.761 -51.2262
28.076149 87.826 -51.8954
28.279600 87.893 -52.5742
28.484526 87.966 -53.2537
28.690937 88.048 -53.9248
28.898843 88.141 -54.5789
29.108256 88.249 -55.2087
29.319186 88.374 -55.8089
29.531645 88.518 -56.3771
29.745644 88.679 -56.9134
29.961193 88.856 -57.4204
30.178304 89.046 -57.9026
30.396989 89.245 -58.3656
30.617258 89.446 -58.8147
30.839123 89.645 -59.2546
31.062596 89.834 -59.6882
31.287688 90.010 -60.1170
31.514412 90.167 -60.5409
31.742778 90.301 -60.9592
31.972800 90.409 -61.3712
32.204488 90.489 -61.7770
32.437855 90.541 -62.1786
32.672913 90.564 -62.5797
32.909674 90.560 -62.9856
33.148151 90.529 -63.4032
33.388356 90.473 -63.8393
33.630302 90.396 -64.3003
33.874001 90.300 -64.7915
34.119466 90.188 -65.3161
34.366710 90.066 -65.8753
34.615745 89.936 -66.4685
34.866585 89.804 -67.0929
35.119243 89.673 -67.7443
35.373731 89.549 -68.4172
35.630064 89.437 -69.1053
35.888254 89.339 -69.8015
36.148315 89.259 -70.4987
36.410261 89.200 -71.1901
36.674104 89.164 -71.8697
36.939860 89.152 -72.5331
37.207542 89.164 -73.1774
37.477163 89.201 -73.8018
37.748738 89.262 -74.4075
38.022281 89.345 -74.9971
38.297806 89.449 -75.5744
38.575327 89.573 -76.1442
38.854860 89.716 -76.7112
39.136419 89.877 -77.2799
39.420017 90.054 -77.8538
39.705671 90.247 -78.4351
39.993395 90.454 -79.0240
40.283203 90.675 -79.6189
40.575112 90.907 -80.2162
40.869136 91.150 -80.8109
41.165290 91.403 -81.3974
41.463591 91.664 -81.9706
41.764053 91.931 -82.5270
42.066693 92.202 -83.0648
42.371525 92.475 -83.5852
42.678567 92.747 -84.0909
42.987834 93.016 -84.5865
43.299341 93.279 -85.0771
43.613106 93.534 -85.5674
43.929145 93.779 -86.0613
44.247473 94.011 -86.5613
44.568109 94.230 -87.0686
44.891068 94.433 -87.5826
45.216367 94.621 -88.1018
45.544023 94.791 -88.6237
45.874054 94.945 -89.1456
46.206476 95.082 -89.6650
46.541307 95.201 -90.1801
46.878565 95.304 -90.6904
47.218266 95.390 -91.1963
47.560429 95.460 -91.6997
47.905072 95.516 -92.2027
48.252212 95.558 -92.7077
48.601867 95.588 -93.2167
48.954056 95.608 -93.7306
49.308798 95.619 -94.2492
49.666109 95.622 -94.7711
50.026010 95.621 -95.2943
50.388520 95.616 -95.8157
50.753656 95.609 -96.3328
51.121437 95.602 -96.8431
51.491884 95.596 -97.3455
51.865016 95.592 -97.8395
52.240851 95.592 -98.3262
52.619410 95.595 -98.8071
53.000712 95.601 -99.2841
53.384777 95.611 -99.7593
53.771625 95.624 -100.2343
54.161276 95.639 -100.7103
54.553751 95.655 -101.1879
54.949070 95.670 -101.6673
55.347254 95.686 -102.1480
55.748323 95.699 -102.6293
56.152298 95.710 -103.1101
56.559201 95.719 -103.5897
56.969052 95.725 -104.0671
57.381873 95.727 -104.5422
57.797686 95.727 -105.0151
58.216512 95.723 -105.4869
58.638373 95.717 -105.9589
59.063291 95.709 -106.4332
59.491288 95.700 -106.9119
59.922386 95.690 -107.3972
60.356608 95.681 -107.8900
60.793977 95.672 -108.3906
61.234515 95.663 -108.8978
61.678246 95.654 -109.4101
62.125192 95.646 -109.9254
62.575377 95.638 -110.4424
63.028824 95.631 -110.9601
63.485557 95.625 -111.4781
63.945599 95.620 -111.9959
64.408975 95.617 -112.5132
64.875709 95.615 -113.0294
65.345825 95.615 -113.5440
65.819348 95.618 -114.0561
66.296302 95.624 -114.5654
66.776713 95.632 -115.0717
67.260604 95.643 -115.5752
67.748002 95.656 -116.0765
68.238932 95.673 -116.5762
68.733420 95.692 -117.0751
69.231490 95.713 -117.5740
69.733170 95.737 -118.0732
70.238485 95.762 -118.5730
70.747463 95.790 -119.0735
71.260128 95.818 -119.5744
71.776508 95.847 -120.0756
72.296630 95.876 -120.5769
72.820521 95.906 -121.0784
73.348209 95.936 -121.5803
73.879720 95.967 -122.0829
74.415083 95.997 -122.5863
74.954326 96.027 -123.0907
75.497475 96.056 -123.5964
76.044561 96.085 -124.1033
76.595612 96.112 -124.6115
77.150655 96.138 -125.1207
77.709720 96.161 -125.6303
78.272837 96.182 -126.1399
78.840034 96.199 -126.6486
79.411342 96.213 -127.1561
79.986789 96.223 -127.6618
80.566406 96.230 -128.1655
81.150224 96.232 -128.6668
81.738272 96.230 -129.1654
82.330581 96.226 -129.6607
82.927182 96.220 -130.1523
83.528107 96.213 -130.6396
84.133386 96.207 -131.1221
84.743051 96.205 -131.5993
85.357134 96.210 -132.0712
85.975667 96.224 -132.5374
86.598682 96.250 -132.9981
87.226212 96.293 -133.4537
87.858289 96.355 -133.9047
88.494946 96.439 -134.3515
89.136217 96.546 -134.7946
89.782135 96.677 -135.2342
90.432733 96.832 -135.6703
91.088046 97.006 -136.1029
91.748108 97.198 -136.5318
92.412952 97.402 -136.9568
93.082615 97.612 -137.3780
93.757130 97.825 -137.7955
94.436533 98.033 -138.2100
95.120859 98.234 -138.6218
95.810144 98.422 -139.0316
96.504423 98.594 -139.4396
97.203734 98.750 -139.8460
97.908112 98.888 -140.2509
98.617595 99.008 -140.6543
99.332219 99.113 -141.0562
100.052021 99.202 -141.4569
100.777039 99.280 -141.8561
101.507311 99.347 -142.2537
102.242875 99.405 -142.6493
102.983769 99.457 -143.0426
103.730032 99.504 -143.4331
104.481702 99.546 -143.8203
105.238820 99.582 -144.2039
106.001424 99.613 -144.5836
106.769554 99.637 -144.9590
107.543250 99.651 -145.3301
108.322553 99.656 -145.6970
109.107503 99.649 -146.0600
109.898141 99.629 -146.4192
110.694508 99.596 -146.7749
111.496646 99.549 -147.1274
112.304596 99.489 -147.4769
113.118402 99.417 -147.8237
113.938104 99.336 -148.1682
114.763747 99.246 -148.5109
115.595372 99.151 -148.8524
116.433024 99.054 -149.1933
117.276746 98.955 -149.5344
118.126581 98.857 -149.8763
118.982575 98.761 -150.2194
119.844772 98.669 -150.5637
120.713217 98.580 -150.9092
121.587954 98.494 -151.2556
122.469031 98.411 -151.6028
123.356492 98.329 -151.9507
124.250384 98.246 -152.2993
125.150753 98.162 -152.6485
126.057647 98.073 -152.9981
126.971113 97.980 -153.3478
127.891198 97.881 -153.6971
128.817950 97.775 -154.0456
129.751418 97.663 -154.3932
130.691651 97.544 -154.7396
131.638696 97.419 -155.0851
132.592604 97.290 -155.4297
133.553425 97.160 -155.7737
134.521208 97.031 -156.1173
135.496004 96.906 -156.4605
136.477864 96.788 -156.8033
137.466839 96.682 -157.1456
138.462981 96.590 -157.4873
139.466340 96.515 -157.8281
140.476971 96.458 -158.1677
141.494925 96.420 -158.5060
142.520256 96.399 -158.8427
143.553016 96.394 -159.1778
144.593260 96.402 -159.5112
145.641043 96.420 -159.8427
146.696418 96.443 -160.1722
147.759441 96.467 -160.4996
148.830166 96.489 -160.8248
149.908651 96.507 -161.1477
150.994951 96.518 -161.4685
152.089123 96.521 -161.7874
153.191223 96.517 -162.1048
154.301310 96.506 -162.4208
155.419441 96.489 -162.7357
156.545674 96.469 -163.0494
157.680069 96.446 -163.3619
158.822683 96.422 -163.6732
159.973578 96.400 -163.9833
161.132813 96.379 -164.2922
162.300447 96.361 -164.6000
163.476543 96.346 -164.9066
164.661162 96.333 -165.2121
165.854364 96.325 -165.5162
167.056213 96.319 -165.8191
168.266772 96.318 -166.1203
169.486102 96.320 -166.4199
170.714268 96.326 -166.7175
171.951334 96.337 -167.0129
173.197364 96.352 -167.3059
174.452424 96.371 -167.5962
175.716578 96.394 -167.8836
176.989893 96.420 -168.1682
178.272434 96.449 -168.4498
179.564270 96.479 -168.7289
180.865467 96.510 -169.0056
182.176092 96.540 -169.2802
183.496216 96.568 -169.5531
184.825905 96.594 -169.8243
186.165229 96.617 -170.0941
187.514259 96.636 -170.3625
188.873065 96.653 -170.6297
190.241717 96.668 -170.8956
191.620287 96.680 -171.1605
193.008847 96.690 -171.4241
194.407468 96.700 -171.6864
195.816225 96.709 -171.9472
197.235190 96.717 -172.2060
198.664438 96.725 -172.4626
200.104042 96.732 -172.7168
201.554078 96.737 -172.9686
203.014622 96.740 -173.2179
204.485750 96.741 -173.4648
205.967538 96.740 -173.7096
207.460064 96.734 -173.9525
208.963405 96.726 -174.1938
210.477640 96.714 -174.4342
212.002848 96.698 -174.6741
213.539108 96.680 -174.9137
215.086500 96.659 -175.1531
216.645105 96.636 -175.3922
218.215005 96.610 -175.6309
219.796281 96.583 -175.8690
221.389015 96.553 -176.1062
222.993292 96.521 -176.3425
224.609193 96.485 -176.5776
226.236804 96.445 -176.8116
227.876209 96.400 -177.0442
229.527494 96.350 -177.2751
231.190745 96.295 -177.5042
232.866048 96.233 -177.7310
234.553491 96.166 -177.9555
236.253163 96.094 -178.1772
237.965150 96.018 -178.3960
239.689544 95.938 -178.6116
241.426433 95.856 -178.8237
243.175909 95.773 -179.0319
244.938062 95.689 -179.2358
246.712984 95.606 -179.4351
248.500768 95.525 -179.6293
250.301507 95.445 -179.8182
252.115295 95.369 179.9984
253.942226 95.296 179.8207
255.782396 95.228 179.6491
257.635901 95.165 179.4836
259.502837 95.106 179.3244
261.383301 95.054 179.1719
263.277392 95.008 179.0263
265.185209 94.968 178.8880
267.106850 94.935 178.7576
269.042417 94.908 178.6353
270.992009 94.888 178.5214
272.955729 94.873 178.4158
274.933678 94.864 178.3183
276.925961 94.860 178.2279
278.932681 94.861 178.1434
280.953942 94.866 178.0631
282.989850 94.874 177.9850
285.040511 94.887 177.9072
287.106032 94.904 177.8277
289.186521 94.926 177.7447
291.282086 94.953 177.6569
293.392836 94.985 177.5634
295.518881 95.024 177.4637
297.660333 95.070 177.3577
299.817302 95.120 177.2458
301.989902 95.176 177.1287
304.178245 95.235 177.0070
306.382446 95.295 176.8817
308.602620 95.355 176.7534
310.838882 95.414 176.6229
313.091348 95.468 176.4907
315.360137 95.517 176.3574
317.645367 95.559 176.2234
319.947156 95.593 176.0891
322.265625 95.618 175.9548
324.600895 95.634 175.8210
326.953086 95.640 175.6882
329.322323 95.636 175.5568
331.708729 95.620 175.4272
334.112427 95.594 175.2998
336.533543 95.558 175.1747
338.972204 95.511 175.0522
341.428536 95.455 174.9321
343.902668 95.390 174.8146
346.394729 95.317 174.6996
348.904848 95.239 174.5870
351.433156 95.157 174.4770
353.979786 95.073 174.3692
356.544869 94.990 174.2636
359.128540 94.910 174.1600
361.730934 94.837 174.0584
364.352185 94.773 173.9588
366.992431 94.721 173.8614
369.651810 94.684 173.7662
372.330459 94.663 173.6735
375.028519 94.660 173.5833
377.746130 94.675 173.4957
380.483434 94.706 173.4108
383.240574 94.754 173.3286
386.017693 94.816 173.2489
388.814937 94.889 173.1717
391.632450 94.971 173.0968
394.470380 95.058 173.0239
397.328875 95.149 172.9528
400.208084 95.241 172.8830
403.108157 95.332 172.8144
406.029245 95.421 172.7465
408.971500 95.507 172.6790
411.935076 95.589 172.6119
414.920127 95.669 172.5450
417.926810 95.746 172.4784
420.955280 95.821 172.4121
424.005695 95.894 172.3465
427.078215 95.967 172.2817
430.173000 96.040 172.2180
433.290211 96.113 172.1559
436.430010 96.187 172.0955
439.592562 96.260 172.0372
442.778031 96.331 171.9811
445.986583 96.400 171.9272
449.218386 96.464 171.8755
452.473607 96.523 171.8257
455.752418 96.575 171.7775
459.054987 96.618 171.7306
462.381489 96.652 171.6848
465.732096 96.675 171.6399
469.106983 96.689 171.5959
472.506325 96.691 171.5529
475.930301 96.685 171.5104
479.379088 96.669 171.4688
482.852867 96.645 171.4277
486.351817 96.614 171.3875
489.876123 96.578 171.3481
493.425968 96.536 171.3099
497.001536 96.491 171.2731
500.603014 96.441 171.2381
504.230589 96.389 171.2050
507.884452 96.333 171.1742
511.564792 96.275 171.1458
515.271802 96.214 171.1198
519.005673 96.150 171.0964
522.766602 96.085 171.0756
526.554785 96.020 171.0574
530.370418 95.957 171.0416
534.213700 95.897 171.0277
538.084833 95.843 171.0153
541.984018 95.795 171.0038
545.911457 95.756 170.9928
549.867357 95.726 170.9819
553.851922 95.706 170.9711
557.865362 95.695 170.9604
561.907884 95.691 170.9500
565.979700 95.693 170.9401
570.081022 95.698 170.9311
574.212064 95.706 170.9230
578.373042 95.713 170.9163
582.564171 95.718 170.9111
586.785671 95.719 170.9074
591.037762 95.715 170.9056
595.320665 95.704 170.9057
599.634604 95.688 170.9078
603.979804 95.664 170.9120
608.356491 95.633 170.9182
612.764893 95.597 170.9265
617.205240 95.554 170.9369
621.677763 95.508 170.9492
626.182696 95.459 170.9631
630.720274 95.408 170.9781
635.290733 95.358 170.9938
639.894312 95.310 171.0094
644.531250 95.267 171.0245
649.201789 95.229 171.0385
653.906173 95.198 171.0511
658.644647 95.175 171.0622
663.417457 95.159 171.0718
668.224854 95.149 171.0801
673.067086 95.145 171.0874
677.944408 95.146 171.0941
682.857073 95.149 171.1007
687.805336 95.154 171.1077
692.789457 95.158 171.1154
697.809695 95.160 171.1240
702.866312 95.160 171.1335
707.959571 95.156 171.1436
713.089738 95.148 171.1541
718.257080 95.135 171.1650
723.461867 95.118 171.1760
728.704370 95.097 171.1871
733.984862 95.073 171.1982
739.303619 95.045 171.2095
744.660918 95.016 171.2209
750.057038 94.985 171.2328
755.492260 94.952 171.2455
760.966869 94.919 171.2589
766.481148 94.886 171.2729
772.035387 94.851 171.2874
777.629873 94.816 171.3014
783.264900 94.778 171.3141
788.940760 94.738 171.3244
794.657750 94.694 171.3313
800.416168 94.646 171.3337
806.216313 94.593 171.3310
812.058489 94.533 171.3227
817.943000 94.468 171.3087
823.870152 94.396 171.2889
829.840255 94.318 171.2635
835.853619 94.234 171.2327
841.910559 94.146 171.1971
848.011390 94.054 171.1570
854.156430 93.959 171.1124
860.346000 93.862 171.0634
866.580422 93.764 171.0099
872.860020 93.668 170.9514
879.185124 93.573 170.8876
885.556062 93.480 170.8182
891.973166 93.392 170.7427
898.436771 93.308 170.6609
904.947215 93.229 170.5731
911.504835 93.157 170.4795
918.109975 93.091 170.3813
924.762978 93.032 170.2805
931.464192 92.980 170.1801
938.213966 92.934 170.0840
945.012651 92.895 169.9979
951.860602 92.862 169.9282
958.758176 92.835 169.8821
965.705733 92.813 169.8666
972.703635 92.798 169.8875
979.752246 92.790 169.9482
986.851935 92.790 170.0483
994.003071 92.799 170.1837
1001.206027 92.817 170.3466
1008.461179 92.846 170.5269
1015.768904 92.885 170.7137
1023.129584 92.935 170.8973
1030.543603 92.996 171.0703
1038.011347 93.066 171.2280
1045.533205 93.145 171.3690
1053.109569 93.234 171.4937
1060.740836 93.331 171.6046
1068.427401 93.437 171.7043
1076.169666 93.549 171.7954
1083.968035 93.668 171.8794
1091.822915 93.792 171.9565
1099.734713 93.920 172.0253
1107.703844 94.049 172.0836
1115.730723 94.177 172.1284
1123.815768 94.303 172.1569
1131.959400 94.426 172.1669
1140.162045 94.542 172.1571
1148.424129 94.652 172.1268
1156.746083 94.756 172.0765
1165.128342 94.853 172.0071
1173.571343 94.944 171.9202
1182.075524 95.029 171.8177
1190.641331 95.111 171.7017
1199.269209 95.190 171.5740
1207.959608 95.266 171.4364
1216.712981 95.341 171.2903
1225.529785 95.415 171.1367
1234.410479 95.488 170.9761
1243.355526 95.559 170.8091
1252.365393 95.629 170.6363
1261.440549 95.695 170.4583
1270.581467 95.758 170.2760
1279.788624 95.816 170.0903
1289.062500 95.869 169.9022
1298.403578 95.918 169.7126
1307.812346 95.961 169.5223
1317.289293 95.999 169.3318
1326.834914 96.033 169.1417
1336.449707 96.062 168.9521
1346.134173 96.087 168.7633
1355.888816 96.108 168.5759
1365.714145 96.125 168.3905
1375.610673 96.139 168.2079
1385.578915 96.148 168.0290
1395.619391 96.154 167.8542
1405.732624 96.157 167.6839
1415.919142 96.156 167.5182
1426.179476 96.152 167.3573
1436.514160 96.146 167.2018
1446.923734 96.138 167.0528
1457.408740 96.129 166.9116
1467.969724 96.119 166.7791
1478.607238 96.110 166.6557
1489.321836 96.103 166.5409
1500.114076 96.099 166.4332
1510.984521 96.096 166.3312
1521.933737 96.097 166.2339
1532.962297 96.099 166.1417
1544.070773 96.104 166.0563
1555.259747 96.109 165.9805
1566.529800 96.115 165.9170
1577.881521 96.122 165.8683
1589.315501 96.129 165.8357
1600.832336 96.136 165.8192
1612.432627 96.144 165.8181
1624.116978 96.151 165.8314
1635.886000 96.159 165.8580
1647.740304 96.166 165.8972
1659.680509 96.174 165.9482
1671.707238 96.183 166.0101
1683.821118 96.193 166.0812
1696.022780 96.205 166.1596
1708.312860 96.218 166.2431
1720.692000 96.233 166.3296
1733.160843 96.250 166.4178
1745.720041 96.268 166.5070
1758.370248 96.287 166.5975
1771.112124 96.307 166.6901
1783.946332 96.326 166.7860
1796.873543 96.345 166.8869
1809.894429 96.362 166.9946
1823.009670 96.379 167.1107
1836.219950 96.394 167.2369
1849.525956 96.407 167.3739
1862.928384 96.421 167.5214
1876.427931 96.433 167.6780
1890.025301 96.447 167.8405
1903.721204 96.461 168.0051
1917.516352 96.475 168.1674
1931.411466 96.490 168.3246
1945.407270 96.503 168.4760
1959.504493 96.514 168.6236
1973.703870 96.522 168.7710
1988.006142 96.527 168.9225
2002.412054 96.526 169.0818
2016.922357 96.520 169.2517
2031.537808 96.509 169.4330
2046.259169 96.493 169.6248
2061.087206 96.471 169.8234
2076.022694 96.444 170.0240
2091.066410 96.412 170.2210
2106.219139 96.375 170.4091
2121.481671 96.334 170.5847
2136.854802 96.288 170.7458
2152.339333 96.238 170.8920
2167.936071 96.185 171.0248
2183.645829 96.130 171.1468
2199.469427 96.074 171.2615
2215.407689 96.018 171.3730
2231.461446 95.963 171.4845
2247.631536 95.910 171.5979
2263.918800 95.860 171.7130
2280.324089 95.815 171.8282
2296.848258 95.774 171.9408
2313.492167 95.737 172.0474
2330.256685 95.706 172.1451
2347.142685 95.677 172.2314
2364.151049 95.652 172.3049
2381.282662 95.629 172.3654
2398.538418 95.608 172.4141
2415.919216 95.587 172.4539
2433.425962 95.567 172.4881
2451.059570 95.548 172.5201
2468.820958 95.530 172.5519
2486.711052 95.514 172.5843
2504.730786 95.501 172.6171
2522.881098 95.490 172.6501
2541.162934 95.482 172.6838
2559.577248 95.479 172.7185
2578.125000 95.481 172.7550
2596.807157 95.490 172.7937
2615.624692 95.505 172.8345
2634.578586 95.528 172.8770
2653.669829 95.561 172.9210
2672.899414 95.602 172.9672
2692.268345 95.652 173.0176
2711.777632 95.712 173.0759
2731.428290 95.781 173.1459
2751.221345 95.858 173.2311
2771.157829 95.944 173.3337
2791.238781 96.037 173.4542
2811.465248 96.137 173.5918
2831.838284 96.241 173.7444
2852.358952 96.349 173.9087
2873.028321 96.460 174.0801
2893.847468 96.570 174.2530
2914.817480 96.679 174.4208
2935.939449 96.784 174.5775
2957.214476 96.884 174.7174
2978.643672 96.978 174.8365
3000.228152 97.065 174.9324
3021.969041 97.142 175.0040
3043.867475 97.211 175.0512
3065.924593 97.270 175.0750
3088.141547 97.321 175.0775
3110.519493 97.362 175.0613
3133.059600 97.395 175.0298
3155.763041 97.420 174.9857
3178.631001 97.439 174.9313
3201.664672 97.453 174.8677
3224.865254 97.462 174.7955
3248.233957 97.468 174.7147
3271.771999 97.470 174.6252
3295.480608 97.470 174.5269
3319.361019 97.467 174.4199
3343.414477 97.463 174.3049
3367.642236 97.456 174.1829
3392.045560 97.447 174.0560
3416.625721 97.435 173.9274
3441.383999 97.423 173.8009
3466.321686 97.408 173.6806
3491.440082 97.394 173.5703
3516.740496 97.380 173.4735
3542.224247 97.368 173.3927
3567.892664 97.359 173.3292
3593.747085 97.354 173.2830
3619.788858 97.355 173.2528
3646.019340 97.363 173.2358
3672.439900 97.378 173.2289
3699.051913 97.401 173.2287
3725.856768 97.432 173.2320
3752.855862 97.470 173.2365
3780.050603 97.516 173.2402
3807.442408 97.569 173.2418
3835.032705 97.628 173.2398
3862.822933 97.694 173.2330
3890.814540 97.766 173.2198
3919.008986 97.842 173.1982
3947.407741 97.923 173.1658
3976.012284 98.009 173.1203
4004.824108 98.097 173.0596
4033.844715 98.188 172.9818
4063.075616 98.282 172.8843
4092.518337 98.377 172.7642
4122.174412 98.473 172.6178
4152.045387 98.570 172.4411
4182.132820 98.666 172.2300
4212.438278 98.761 171.9811
4242.963342 98.854 171.6922
4273.709604 98.944 171.3620
4304.678665 99.030 170.9904
4335.872141 99.111 170.5782
4367.291658 99.186 170.1266
4398.938854 99.253 169.6371
4430.815378 99.313 169.1119
4462.922893 99.363 168.5536
4495.263072 99.404 167.9654
4527.837601 99.434 167.3507
4560.648179 99.452 166.7132
4593.696515 99.459 166.0562
4626.984334 99.453 165.3832
4660.513370 99.437 164.6970
4694.285371 99.408 164.0001
4728.302098 99.369 163.2946
4762.565324 99.320 162.5821
4797.076835 99.262 161.8635
4831.838432 99.196 161.1391
4866.851925 99.124 160.4085
4902.119140 99.045 159.6704
4937.641916 98.963 158.9229
4973.422105 98.876 158.1636
5009.461572 98.787 157.3897
5045.762195 98.694 156.5988
5082.325868 98.598 155.7882
5119.154496 98.500 154.9560
5156.250000 98.397 154.1006
5193.614313 98.289 153.2218
5231.249383 98.175 152.3205
5269.157173 98.052 151.3993
5307.339658 97.920 150.4624
5345.798829 97.777 149.5161
5384.536691 97.621 148.5684
5423.555263 97.449 147.6292
5462.856580 97.261 146.7112
5502.442691 97.054 145.8294
5542.315659 96.828 145.0015
5582.477563 96.583 144.2476
5622.930497 96.318 143.5900
5663.676569 96.033 143.0528
5704.717904 95.731 142.6613
5746.056642 95.413 142.4416
5787.694937 95.083 142.4200
5829.634960 94.743 142.6222
5871.878898 94.401 143.0723
5914.428953 94.060 143.7909
5957.287343 93.727 144.7933
6000.456303 93.411 146.0858
6043.938083 93.117 147.6628
6087.734950 92.853 149.5040
6131.849187 92.625 151.5736
6176.283094 92.436 153.8219
6221.038987 92.290 156.1895
6266.119200 92.185 158.6128
6311.526083 92.118 161.0302
6357.262002 92.085 163.3872
6403.329344 92.082 165.6390
6449.730508 92.102 167.7528
6496.467914 92.140 169.7062
6543.543998 92.192 171.4869
6590.961215 92.252 173.0895
6638.722037 92.318 174.5142
6686.828954 92.387 175.7647
6735.284473 92.456 176.8477
6784.091120 92.523 177.7722
6833.251441 92.587 178.5500
6882.767998 92.647 179.1953
6932.643372 92.702 179.7246
6982.880164 92.750 -179.8444
7033.480992 92.792 -179.4934
7084.448495 92.827 -179.2040
7135.785329 92.856 -178.9584
7187.494171 92.878 -178.7394
7239.577717 92.895 -178.5307
7292.038681 92.906 -178.3172
7344.879799 92.912 -178.0854
7398.103826 92.913 -177.8242
7451.713536 92.911 -177.5256
7505.711724 92.907 -177.1853
7560.101205 92.901 -176.8040
7614.884815 92.893 -176.3879
7670.065409 92.886 -175.9485
7725.645865 92.878 -175.5033
7781.629080 92.871 -175.0743
7838.017972 92.862 -174.6869
7894.815481 92.850 -174.3676
7952.024569 92.833 -174.1410
8009.648217 92.807 -174.0266
8067.689429 92.768 -174.0350
8126.151233 92.711 -174.1645
8185.036674 92.628 -174.3977
8244.348824 92.516 -174.6986
8304.090774 92.368 -175.0099
8364.265639 92.180 -175.2508
8424.876556 91.950 -175.3167
8485.926684 91.679 -175.0810
8547.419207 91.374 -174.4010
8609.357330 91.048 -173.1321
8671.744282 90.718 -171.1506
8734.583316 90.409 -168.3892
8797.877707 90.150 -164.8772
8861.630756 89.969 -160.7699
8925.845785 89.888 -156.3407
8990.526143 89.918 -151.9260
9055.675202 90.057 -147.8409
9121.296357 90.293 -144.3135
9187.393031 90.606 -141.4640
9253.968668 90.972 -139.3227
9321.026740 91.370 -137.8636
9388.570742 91.781 -137.0340
9456.604196 92.189 -136.7736
9525.130648 92.581 -137.0240
9594.153671 92.947 -137.7322
9663.676863 93.278 -138.8496
9733.703850 93.567 -140.3305
9804.238280 93.808 -142.1299
9875.283832 93.997 -144.2021
9946.844210 94.129 -146.4994
10018.923143 94.202 -148.9721
10091.524390 94.216 -151.5692
10164.651736 94.169 -154.2391
10238.308993 94.064 -156.9320
10312.500000 93.904 -159.6011
10387.228626 93.693 -162.2045
10462.498767 93.435 -164.7072
10538.314345 93.136 -167.0809
10614.679315 92.801 -169.3054
10691.597657 92.436 -171.3677
10769.073381 92.047 -173.2615
10847.110526 91.636 -174.9859
10925.713161 91.208 -176.5438
11004.885382 90.764 -177.9396
11084.631318 90.306 -179.1772
11164.955126 89.833 179.7423
11245.860993 89.344 178.8231
11327.353138 88.839 178.0767
11409.435808 88.315 177.5242
11492.113283 87.770 177.1978
11575.389873 87.206 177.1423
11659.269920 86.623 177.4153
11743.757796 86.025 178.0851
11828.857906 85.418 179.2266
11914.574686 84.814 -179.0892
12000.912606 84.228 -176.8115
12087.876166 83.681 -173.9357
12175.469900 83.199 -170.5314
12263.698373 82.810 -166.7637
12352.566187 82.540 -162.8875
12442.077974 82.404 -159.2066
12532.238400 82.407 -156.0093
12623.052165 82.538 -153.5138
12714.524005 82.778 -151.8453
12806.658687 83.101 -151.0462
12899.461015 83.481 -151.1029
12992.935827 83.896 -151.9723
13087.087996 84.329 -153.6006
13181.922430 84.766 -155.9337
13277.444074 85.196 -158.9216
13373.657907 85.613 -162.5202
13470.568945 86.013 -166.6915
13568.182241 86.391 -171.4037
13666.502883 86.746 -176.6307
13765.535996 87.075 177.6484
13865.286744 87.373 171.4523
13965.760328 87.637 164.7997
14066.961984 87.860 157.7134
14168.896989 88.037 150.2233
14271.570658 88.160 142.3703
14374.988342 88.224 134.2078
14479.155433 88.223 125.8024
14584.077362 88.155 117.2317
14689.759598 88.018 108.5796
14796.207652 87.814 99.9312
14903.427072 87.549 91.3658
15011.423448 87.229 82.9527
15120.202410 86.862 74.7483
15229.769630 86.458 66.7940
15340.130819 86.026 59.1163
15451.291730 85.576 51.7272
15563.258160 85.117 44.6261
15676.035944 84.655 37.8034
15789.630962 84.197 31.2446
15904.049137 83.743 24.9355
16019.296433 83.293 18.8673
16135.378859 82.842 13.0403
16252.302465 82.387 7.4674
16370.073348 81.921 2.1743
16488.697648 81.439 -2.7997
16608.181548 80.940 -7.4031
16728.531278 80.424 -11.5735
16849.753112 79.897 -15.2426
16971.853368 79.370 -18.3452
17094.838414 78.859 -20.8385
17218.714660 78.391 -22.7298
17343.488565 77.993 -24.1105
17469.166632 77.693 -25.1757
17595.755415 77.512 -26.2076
17723.261512 77.455 -27.5182
17851.691571 77.508 -29.3719
17981.052287 77.649 -31.9355
18111.350404 77.850 -35.2709
18242.592715 78.084 -39.3600
18374.786062 78.333 -44.1388
18507.937336 78.585 -49.5216
18642.053479 78.833 -55.4133
18777.141484 79.073 -61.7098
18913.208391 79.306 -68.2913
19050.261296 79.531 -75.0123
19188.307342 79.743 -81.6937
19327.353727 79.941 -88.1191
19467.407699 80.117 -94.0409
19608.476560 80.267 -99.1967
19750.567664 80.384 -103.3325
19893.688419 80.464 -106.2278
20037.846286 80.505 -107.7192
