* Measurement data measured by REW V5.31.3
* Source: EXCL: Headset (USB-C to 3.5mm Headphone Jack Adapter), MICROPHONE (Master Volume), 0, volume: 0.260
* Format: 256k Log Swept Sine, 1 sweep at -12.0 dBFS with no timing reference
* Dated: Feb 9, 2025 9:18:10 PM
* REW Settings:
*  C-weighting compensation: Off
*  Target level: 75.0 dB
* Note: ; 
* Measurement: KSC75 L4
* Smoothing: 1/6 octave
* Frequency Step: 96 ppo
* Start Frequency: 20.0 Hz
*
* Freq(Hz) SPL(dB) Phase(degrees)
20.141602 87.155 -4.5007
20.287556 87.171 -4.6706
20.434568 87.191 -4.8976
20.582645 87.213 -5.1748
20.731796 87.235 -5.4954
20.882027 87.256 -5.8532
21.033346 87.273 -6.2430
21.185763 87.286 -6.6610
21.339284 87.295 -7.1040
21.493917 87.298 -7.5694
21.649671 87.298 -8.0549
21.806553 87.294 -8.5584
21.964572 87.288 -9.0772
22.123737 87.280 -9.6088
22.284054 87.273 -10.1503
22.445534 87.267 -10.6991
22.608183 87.265 -11.2528
22.772012 87.267 -11.8096
22.937027 87.276 -12.3682
23.103238 87.291 -12.9281
23.270654 87.315 -13.4893
23.439282 87.349 -14.0523
23.609133 87.392 -14.6179
23.780215 87.445 -15.1871
23.952536 87.509 -15.7604
24.126106 87.583 -16.3382
24.300934 87.667 -16.9204
24.477028 87.759 -17.5064
24.654399 87.859 -18.0955
24.833055 87.965 -18.6863
25.013005 88.076 -19.2776
25.194260 88.191 -19.8682
25.376828 88.307 -20.4569
25.560719 88.424 -21.0425
25.745942 88.540 -21.6243
25.932508 88.653 -22.2013
26.120426 88.764 -22.7727
26.309705 88.871 -23.3377
26.500356 88.973 -23.8954
26.692388 89.071 -24.4448
26.885812 89.165 -24.9854
27.080638 89.255 -25.5164
27.276876 89.341 -26.0377
27.474535 89.426 -26.5495
27.673627 89.510 -27.0522
27.874161 89.595 -27.5468
28.076149 89.684 -28.0344
28.279600 89.779 -28.5161
28.484526 89.882 -28.9931
28.690937 89.997 -29.4664
28.898843 90.125 -29.9370
29.108256 90.268 -30.4057
29.319186 90.427 -30.8734
29.531645 90.602 -31.3411
29.745644 90.791 -31.8102
29.961193 90.992 -32.2819
30.178304 91.202 -32.7579
30.396989 91.417 -33.2394
30.617258 91.631 -33.7276
30.839123 91.839 -34.2232
31.062596 92.037 -34.7262
31.287688 92.219 -35.2365
31.514412 92.382 -35.7534
31.742778 92.522 -36.2760
31.972800 92.636 -36.8035
32.204488 92.722 -37.3351
32.437855 92.780 -37.8702
32.672913 92.808 -38.4081
32.909674 92.807 -38.9485
33.148151 92.780 -39.4905
33.388356 92.729 -40.0336
33.630302 92.656 -40.5771
33.874001 92.567 -41.1205
34.119466 92.464 -41.6639
34.366710 92.354 -42.2079
34.615745 92.241 -42.7541
34.866585 92.130 -43.3041
35.119243 92.027 -43.8599
35.373731 91.935 -44.4230
35.630064 91.858 -44.9937
35.888254 91.798 -45.5710
36.148315 91.759 -46.1522
36.410261 91.740 -46.7337
36.674104 91.744 -47.3109
36.939860 91.770 -47.8794
37.207542 91.819 -48.4359
37.477163 91.890 -48.9783
37.748738 91.983 -49.5067
38.022281 92.099 -50.0227
38.297806 92.235 -50.5292
38.575327 92.392 -51.0300
38.854860 92.568 -51.5285
39.136419 92.761 -52.0279
39.420017 92.973 -52.5304
39.705671 93.200 -53.0374
39.993395 93.442 -53.5495
40.283203 93.698 -54.0669
40.575112 93.967 -54.5893
40.869136 94.246 -55.1164
41.165290 94.535 -55.6478
41.463591 94.831 -56.1830
41.764053 95.132 -56.7212
42.066693 95.435 -57.2618
42.371525 95.739 -57.8039
42.678567 96.041 -58.3467
42.987834 96.339 -58.8893
43.299341 96.631 -59.4309
43.613106 96.913 -59.9709
43.929145 97.186 -60.5088
44.247473 97.446 -61.0442
44.568109 97.693 -61.5773
44.891068 97.925 -62.1087
45.216367 98.141 -62.6392
45.544023 98.341 -63.1702
45.874054 98.523 -63.7032
46.206476 98.689 -64.2395
46.541307 98.836 -64.7803
46.878565 98.968 -65.3264
47.218266 99.083 -65.8786
47.560429 99.182 -66.4371
47.905072 99.268 -67.0025
48.252212 99.341 -67.5744
48.601867 99.402 -68.1525
48.954056 99.453 -68.7357
49.308798 99.495 -69.3223
49.666109 99.529 -69.9106
50.026010 99.558 -70.4987
50.388520 99.582 -71.0854
50.753656 99.605 -71.6697
51.121437 99.627 -72.2512
51.491884 99.649 -72.8301
51.865016 99.674 -73.4065
52.240851 99.702 -73.9808
52.619410 99.733 -74.5532
53.000712 99.768 -75.1240
53.384777 99.805 -75.6934
53.771625 99.846 -76.2620
54.161276 99.888 -76.8301
54.553751 99.932 -77.3981
54.949070 99.975 -77.9665
55.347254 100.019 -78.5352
55.748323 100.060 -79.1043
56.152298 100.100 -79.6735
56.559201 100.137 -80.2426
56.969052 100.171 -80.8115
57.381873 100.202 -81.3809
57.797686 100.230 -81.9515
58.216512 100.254 -82.5245
58.638373 100.276 -83.1014
59.063291 100.296 -83.6833
59.491288 100.314 -84.2711
59.922386 100.332 -84.8654
60.356608 100.349 -85.4663
60.793977 100.367 -86.0730
61.234515 100.385 -86.6844
61.678246 100.403 -87.2992
62.125192 100.421 -87.9160
62.575377 100.441 -88.5342
63.028824 100.461 -89.1536
63.485557 100.483 -89.7746
63.945599 100.506 -90.3975
64.408975 100.531 -91.0224
64.875709 100.559 -91.6492
65.345825 100.589 -92.2775
65.819348 100.622 -92.9067
66.296302 100.659 -93.5362
66.776713 100.698 -94.1657
67.260604 100.740 -94.7951
67.748002 100.785 -95.4247
68.238932 100.833 -96.0552
68.733420 100.883 -96.6876
69.231490 100.934 -97.3227
69.733170 100.988 -97.9615
70.238485 101.043 -98.6048
70.747463 101.099 -99.2529
71.260128 101.156 -99.9059
71.776508 101.213 -100.5635
72.296630 101.272 -101.2252
72.820521 101.330 -101.8906
73.348209 101.389 -102.5590
73.879720 101.449 -103.2303
74.415083 101.508 -103.9044
74.954326 101.567 -104.5813
75.497475 101.626 -105.2608
76.044561 101.684 -105.9428
76.595612 101.740 -106.6268
77.150655 101.795 -107.3125
77.709720 101.847 -107.9995
78.272837 101.896 -108.6877
78.840034 101.942 -109.3772
79.411342 101.984 -110.0681
79.986789 102.022 -110.7608
80.566406 102.055 -111.4554
81.150224 102.085 -112.1521
81.738272 102.111 -112.8509
82.330581 102.134 -113.5518
82.927182 102.155 -114.2546
83.528107 102.176 -114.9592
84.133386 102.198 -115.6653
84.743051 102.223 -116.3729
85.357134 102.255 -117.0817
85.975667 102.297 -117.7915
86.598682 102.351 -118.5022
87.226212 102.422 -119.2137
87.858289 102.511 -119.9257
88.494946 102.622 -120.6382
89.136217 102.756 -121.3507
89.782135 102.912 -122.0632
90.432733 103.090 -122.7750
91.088046 103.287 -123.4860
91.748108 103.499 -124.1955
92.412952 103.722 -124.9034
93.082615 103.950 -125.6092
93.757130 104.178 -126.3126
94.436533 104.401 -127.0133
95.120859 104.615 -127.7109
95.810144 104.815 -128.4053
96.504423 104.998 -129.0965
97.203734 105.164 -129.7844
97.908112 105.312 -130.4691
98.617595 105.441 -131.1506
99.332219 105.554 -131.8289
100.052021 105.651 -132.5041
100.777039 105.735 -133.1763
101.507311 105.808 -133.8455
102.242875 105.873 -134.5118
102.983769 105.930 -135.1751
103.730032 105.982 -135.8357
104.481702 106.028 -136.4938
105.238820 106.068 -137.1498
106.001424 106.103 -137.8040
106.769554 106.131 -138.4567
107.543250 106.149 -139.1080
108.322553 106.157 -139.7582
109.107503 106.154 -140.4071
109.898141 106.136 -141.0544
110.694508 106.106 -141.7000
111.496646 106.061 -142.3436
112.304596 106.002 -142.9852
113.118402 105.931 -143.6247
113.938104 105.849 -144.2622
114.763747 105.759 -144.8978
115.595372 105.662 -145.5314
116.433024 105.561 -146.1630
117.276746 105.458 -146.7924
118.126581 105.355 -147.4193
118.982575 105.254 -148.0435
119.844772 105.154 -148.6648
120.713217 105.057 -149.2827
121.587954 104.961 -149.8971
122.469031 104.868 -150.5075
123.356492 104.774 -151.1137
124.250384 104.679 -151.7154
125.150753 104.582 -152.3124
126.057647 104.480 -152.9045
126.971113 104.373 -153.4917
127.891198 104.259 -154.0737
128.817950 104.138 -154.6505
129.751418 104.009 -155.2222
130.691651 103.874 -155.7886
131.638696 103.732 -156.3498
132.592604 103.585 -156.9055
133.553425 103.436 -157.4556
134.521208 103.286 -157.9996
135.496004 103.141 -158.5373
136.477864 103.001 -159.0685
137.466839 102.872 -159.5929
138.462981 102.755 -160.1105
139.466340 102.655 -160.6214
140.476971 102.571 -161.1256
141.494925 102.506 -161.6233
142.520256 102.458 -162.1145
143.553016 102.426 -162.5992
144.593260 102.406 -163.0771
145.641043 102.396 -163.5484
146.696418 102.392 -164.0128
147.759441 102.389 -164.4700
148.830166 102.384 -164.9198
149.908651 102.375 -165.3618
150.994951 102.359 -165.7958
152.089123 102.335 -166.2215
153.191223 102.303 -166.6385
154.301310 102.265 -167.0466
155.419441 102.219 -167.4458
156.545674 102.170 -167.8356
157.680069 102.118 -168.2160
158.822683 102.064 -168.5868
159.973578 102.011 -168.9475
161.132813 101.959 -169.2977
162.300447 101.910 -169.6366
163.476543 101.864 -169.9636
164.661162 101.821 -170.2778
165.854364 101.782 -170.5785
167.056213 101.747 -170.8652
168.266772 101.717 -171.1378
169.486102 101.691 -171.3964
170.714268 101.671 -171.6414
171.951334 101.656 -171.8736
173.197364 101.648 -172.0941
174.452424 101.646 -172.3044
175.716578 101.650 -172.5064
176.989893 101.659 -172.7024
178.272434 101.674 -172.8953
179.564270 101.693 -173.0880
180.865467 101.713 -173.2836
182.176092 101.735 -173.4854
183.496216 101.757 -173.6957
184.825905 101.778 -173.9168
186.165229 101.795 -174.1499
187.514259 101.810 -174.3958
188.873065 101.822 -174.6541
190.241717 101.831 -174.9243
191.620287 101.837 -175.2048
193.008847 101.840 -175.4939
194.407468 101.841 -175.7895
195.816225 101.840 -176.0894
197.235190 101.837 -176.3915
198.664438 101.833 -176.6937
200.104042 101.828 -176.9944
201.554078 101.821 -177.2920
203.014622 101.811 -177.5855
204.485750 101.799 -177.8740
205.967538 101.785 -178.1565
207.460064 101.767 -178.4324
208.963405 101.746 -178.7012
210.477640 101.721 -178.9629
212.002848 101.694 -179.2174
213.539108 101.663 -179.4651
215.086500 101.631 -179.7064
216.645105 101.596 -179.9418
218.215005 101.560 179.8281
219.796281 101.521 179.6029
221.389015 101.481 179.3820
222.993292 101.438 179.1648
224.609193 101.392 178.9511
226.236804 101.343 178.7405
227.876209 101.289 178.5327
229.527494 101.231 178.3278
231.190745 101.167 178.1255
232.866048 101.098 177.9260
234.553491 101.024 177.7292
236.253163 100.945 177.5352
237.965150 100.862 177.3441
239.689544 100.776 177.1559
241.426433 100.689 176.9708
243.175909 100.600 176.7888
244.938062 100.511 176.6099
246.712984 100.423 176.4341
248.500768 100.336 176.2612
250.301507 100.252 176.0908
252.115295 100.171 175.9228
253.942226 100.094 175.7569
255.782396 100.022 175.5928
257.635901 99.954 175.4305
259.502837 99.892 175.2699
261.383301 99.835 175.1112
263.277392 99.785 174.9547
265.185209 99.741 174.8005
267.106850 99.704 174.6492
269.042417 99.673 174.5011
270.992009 99.648 174.3565
272.955729 99.628 174.2155
274.933678 99.614 174.0781
276.925961 99.603 173.9441
278.932681 99.595 173.8131
280.953942 99.591 173.6849
282.989850 99.589 173.5594
285.040511 99.589 173.4361
287.106032 99.592 173.3151
289.186521 99.599 173.1962
291.282086 99.610 173.0793
293.392836 99.626 172.9647
295.518881 99.648 172.8524
297.660333 99.675 172.7425
299.817302 99.708 172.6353
301.989902 99.746 172.5307
304.178245 99.787 172.4289
306.382446 99.831 172.3299
308.602620 99.875 172.2336
310.838882 99.917 172.1403
313.091348 99.957 172.0497
315.360137 99.992 171.9619
317.645367 100.021 171.8767
319.947156 100.042 171.7942
322.265625 100.056 171.7139
324.600895 100.060 171.6359
326.953086 100.055 171.5600
329.322323 100.040 171.4861
331.708729 100.014 171.4140
334.112427 99.979 171.3438
336.533543 99.932 171.2752
338.972204 99.876 171.2084
341.428536 99.811 171.1433
343.902668 99.737 171.0801
346.394729 99.656 171.0190
348.904848 99.569 170.9600
351.433156 99.478 170.9033
353.979786 99.386 170.8492
356.544869 99.294 170.7978
359.128540 99.206 170.7492
361.730934 99.124 170.7035
364.352185 99.052 170.6606
366.992431 98.991 170.6206
369.651810 98.946 170.5832
372.330459 98.916 170.5483
375.028519 98.904 170.5157
377.746130 98.911 170.4853
380.483434 98.934 170.4568
383.240574 98.974 170.4302
386.017693 99.027 170.4052
388.814937 99.092 170.3818
391.632450 99.166 170.3599
394.470380 99.245 170.3394
397.328875 99.328 170.3201
400.208084 99.412 170.3020
403.108157 99.495 170.2850
406.029245 99.576 170.2691
408.971500 99.654 170.2543
411.935076 99.729 170.2406
414.920127 99.801 170.2281
417.926810 99.871 170.2172
420.955280 99.938 170.2077
424.005695 100.005 170.1999
427.078215 100.071 170.1940
430.173000 100.137 170.1900
433.290211 100.204 170.1881
436.430010 100.271 170.1884
439.592562 100.338 170.1909
442.778031 100.403 170.1958
445.986583 100.466 170.2029
449.218386 100.525 170.2122
452.473607 100.578 170.2233
455.752418 100.624 170.2361
459.054987 100.661 170.2505
462.381489 100.689 170.2662
465.732096 100.707 170.2832
469.106983 100.714 170.3014
472.506325 100.712 170.3207
475.930301 100.699 170.3412
479.379088 100.678 170.3629
482.852867 100.648 170.3859
486.351817 100.612 170.4105
489.876123 100.570 170.4368
493.425968 100.524 170.4650
497.001536 100.473 170.4953
500.603014 100.418 170.5277
504.230589 100.361 170.5622
507.884452 100.300 170.5986
511.564792 100.236 170.6369
515.271802 100.169 170.6769
519.005673 100.101 170.7186
522.766602 100.031 170.7617
526.554785 99.960 170.8063
530.370418 99.892 170.8523
534.213700 99.826 170.8997
538.084833 99.766 170.9482
541.984018 99.712 170.9980
545.911457 99.667 171.0489
549.867357 99.631 171.1006
553.851922 99.605 171.1533
557.865362 99.588 171.2067
561.907884 99.578 171.2609
565.979700 99.574 171.3160
570.081022 99.574 171.3721
574.212064 99.576 171.4293
578.373042 99.578 171.4878
582.564171 99.577 171.5479
586.785671 99.573 171.6096
591.037762 99.564 171.6733
595.320665 99.548 171.7390
599.634604 99.526 171.8066
603.979804 99.497 171.8765
608.356491 99.461 171.9483
612.764893 99.418 172.0221
617.205240 99.370 172.0977
621.677763 99.318 172.1750
626.182696 99.262 172.2540
630.720274 99.204 172.3344
635.290733 99.146 172.4164
639.894312 99.091 172.4997
644.531250 99.039 172.5845
649.201789 98.993 172.6706
653.906173 98.953 172.7581
658.644647 98.920 172.8469
663.417457 98.895 172.9370
668.224854 98.876 173.0286
673.067086 98.863 173.1217
677.944408 98.855 173.2166
682.857073 98.849 173.3134
687.805336 98.845 173.4123
692.789457 98.840 173.5136
697.809695 98.834 173.6174
702.866312 98.825 173.7238
707.959571 98.812 173.8329
713.089738 98.795 173.9447
718.257080 98.773 174.0590
723.461867 98.747 174.1757
728.704370 98.717 174.2947
733.984862 98.684 174.4158
739.303619 98.648 174.5389
744.660918 98.609 174.6639
750.057038 98.569 174.7906
755.492260 98.528 174.9189
760.966869 98.487 175.0485
766.481148 98.445 175.1794
772.035387 98.402 175.3116
777.629873 98.357 175.4447
783.264900 98.311 175.5789
788.940760 98.261 175.7141
794.657750 98.208 175.8503
800.416168 98.150 175.9874
806.216313 98.087 176.1254
812.058489 98.018 176.2643
817.943000 97.942 176.4037
823.870152 97.861 176.5436
829.840255 97.774 176.6835
835.853619 97.681 176.8233
841.910559 97.584 176.9629
848.011390 97.484 177.1024
854.156430 97.381 177.2418
860.346000 97.277 177.3815
866.580422 97.172 177.5217
872.860020 97.069 177.6628
879.185124 96.968 177.8052
885.556062 96.870 177.9490
891.973166 96.777 178.0947
898.436771 96.690 178.2423
904.947215 96.610 178.3920
911.504835 96.537 178.5438
918.109975 96.474 178.6977
924.762978 96.419 178.8538
931.464192 96.375 179.0120
938.213966 96.342 179.1722
945.012651 96.318 179.3345
951.860602 96.304 179.4989
958.758176 96.299 179.6655
965.705733 96.303 179.8346
972.703635 96.315 -179.9938
979.752246 96.333 -179.8196
986.851935 96.358 -179.6428
994.003071 96.388 -179.4635
1001.206027 96.423 -179.2819
1008.461179 96.464 -179.0979
1015.768904 96.509 -178.9116
1023.129584 96.560 -178.7228
1030.543603 96.617 -178.5314
1038.011347 96.681 -178.3369
1045.533205 96.752 -178.1393
1053.109569 96.831 -177.9384
1060.740836 96.917 -177.7345
1068.427401 97.012 -177.5280
1076.169666 97.113 -177.3195
1083.968035 97.221 -177.1098
1091.822915 97.333 -176.8994
1099.734713 97.448 -176.6890
1107.703844 97.564 -176.4792
1115.730723 97.678 -176.2704
1123.815768 97.790 -176.0629
1131.959400 97.898 -175.8574
1140.162045 98.001 -175.6544
1148.424129 98.097 -175.4545
1156.746083 98.189 -175.2583
1165.128342 98.275 -175.0663
1173.571343 98.356 -174.8788
1182.075524 98.433 -174.6957
1190.641331 98.508 -174.5164
1199.269209 98.582 -174.3401
1207.959608 98.654 -174.1661
1216.712981 98.727 -173.9931
1225.529785 98.799 -173.8202
1234.410479 98.872 -173.6465
1243.355526 98.944 -173.4711
1252.365393 99.016 -173.2933
1261.440549 99.087 -173.1126
1270.581467 99.155 -172.9285
1279.788624 99.221 -172.7406
1289.062500 99.285 -172.5488
1298.403578 99.345 -172.3530
1307.812346 99.402 -172.1532
1317.289293 99.456 -171.9496
1326.834914 99.508 -171.7421
1336.449707 99.557 -171.5309
1346.134173 99.604 -171.3163
1355.888816 99.650 -171.0985
1365.714145 99.694 -170.8779
1375.610673 99.736 -170.6545
1385.578915 99.777 -170.4283
1395.619391 99.816 -170.1994
1405.732624 99.855 -169.9675
1415.919142 99.892 -169.7327
1426.179476 99.929 -169.4951
1436.514160 99.966 -169.2556
1446.923734 100.005 -169.0148
1457.408740 100.045 -168.7742
1467.969724 100.088 -168.5353
1478.607238 100.134 -168.2996
1489.321836 100.184 -168.0686
1500.114076 100.238 -167.8433
1510.984521 100.296 -167.6243
1521.933737 100.357 -167.4116
1532.962297 100.423 -167.2044
1544.070773 100.491 -167.0014
1555.259747 100.561 -166.8007
1566.529800 100.633 -166.6001
1577.881521 100.706 -166.3973
1589.315501 100.780 -166.1903
1600.832336 100.855 -165.9776
1612.432627 100.929 -165.7580
1624.116978 101.005 -165.5312
1635.886000 101.081 -165.2971
1647.740304 101.158 -165.0564
1659.680509 101.236 -164.8102
1671.707238 101.316 -164.5604
1683.821118 101.398 -164.3091
1696.022780 101.483 -164.0587
1708.312860 101.571 -163.8114
1720.692000 101.661 -163.5693
1733.160843 101.754 -163.3342
1745.720041 101.850 -163.1076
1758.370248 101.947 -162.8905
1771.112124 102.046 -162.6835
1783.946332 102.146 -162.4864
1796.873543 102.245 -162.2987
1809.894429 102.344 -162.1194
1823.009670 102.442 -161.9476
1836.219950 102.539 -161.7820
1849.525956 102.634 -161.6215
1862.928384 102.728 -161.4649
1876.427931 102.821 -161.3111
1890.025301 102.914 -161.1594
1903.721204 103.006 -161.0090
1917.516352 103.099 -160.8601
1931.411466 103.193 -160.7134
1945.407270 103.287 -160.5708
1959.504493 103.381 -160.4352
1973.703870 103.474 -160.3096
1988.006142 103.566 -160.1973
2002.412054 103.655 -160.1011
2016.922357 103.740 -160.0239
2031.537808 103.820 -159.9676
2046.259169 103.894 -159.9336
2061.087206 103.962 -159.9222
2076.022694 104.022 -159.9327
2091.066410 104.075 -159.9639
2106.219139 104.122 -160.0148
2121.481671 104.162 -160.0846
2136.854802 104.198 -160.1728
2152.339333 104.230 -160.2791
2167.936071 104.261 -160.4036
2183.645829 104.291 -160.5464
2199.469427 104.321 -160.7084
2215.407689 104.354 -160.8908
2231.461446 104.390 -161.0950
2247.631536 104.429 -161.3224
2263.918800 104.473 -161.5742
2280.324089 104.520 -161.8515
2296.848258 104.572 -162.1558
2313.492167 104.628 -162.4890
2330.256685 104.688 -162.8534
2347.142685 104.750 -163.2515
2364.151049 104.815 -163.6855
2381.282662 104.882 -164.1576
2398.538418 104.950 -164.6698
2415.919216 105.018 -165.2231
2433.425962 105.086 -165.8172
2451.059570 105.153 -166.4511
2468.820958 105.219 -167.1231
2486.711052 105.284 -167.8315
2504.730786 105.349 -168.5742
2522.881098 105.412 -169.3501
2541.162934 105.476 -170.1589
2559.577248 105.541 -171.0020
2578.125000 105.606 -171.8819
2596.807157 105.673 -172.8007
2615.624692 105.741 -173.7594
2634.578586 105.809 -174.7567
2653.669829 105.878 -175.7892
2672.899414 105.947 -176.8518
2692.268345 106.016 -177.9378
2711.777632 106.083 -179.0406
2731.428290 106.150 179.8458
2751.221345 106.216 178.7266
2771.157829 106.280 177.6053
2791.238781 106.340 176.4847
2811.465248 106.396 175.3670
2831.838284 106.445 174.2541
2852.358952 106.486 173.1487
2873.028321 106.516 172.0542
2893.847468 106.535 170.9751
2914.817480 106.540 169.9163
2935.939449 106.531 168.8831
2957.214476 106.506 167.8802
2978.643672 106.466 166.9113
3000.228152 106.412 165.9787
3021.969041 106.342 165.0829
3043.867475 106.259 164.2226
3065.924593 106.164 163.3946
3088.141547 106.057 162.5943
3110.519493 105.940 161.8158
3133.059600 105.814 161.0513
3155.763041 105.680 160.2910
3178.631001 105.540 159.5237
3201.664672 105.394 158.7371
3224.865254 105.241 157.9186
3248.233957 105.082 157.0559
3271.771999 104.915 156.1383
3295.480608 104.738 155.1589
3319.361019 104.547 154.1154
3343.414477 104.341 153.0103
3367.642236 104.116 151.8508
3392.045560 103.869 150.6494
3416.625721 103.595 149.4231
3441.383999 103.293 148.1945
3466.321686 102.959 146.9935
3491.440082 102.590 145.8587
3516.740496 102.183 144.8413
3542.224247 101.736 144.0098
3567.892664 101.248 143.4559
3593.747085 100.720 143.3014
3619.788858 100.154 143.7058
3646.019340 99.559 144.8732
3672.439900 98.950 147.0573
3699.051913 98.350 150.5599
3725.856768 97.790 155.7125
3752.855862 97.312 162.8113
3780.050603 96.960 171.9663
3807.442408 96.774 -177.1333
3835.032705 96.784 -165.3622
3862.822933 96.993 -153.9203
3890.814540 97.383 -143.7968
3919.008986 97.922 -135.4479
3947.407741 98.567 -128.8804
3976.012284 99.283 -123.8829
4004.824108 100.037 -120.1918
4033.844715 100.805 -117.5646
4063.075616 101.572 -115.8001
4092.518337 102.326 -114.7384
4122.174412 103.058 -114.2547
4152.045387 103.764 -114.2526
4182.132820 104.441 -114.6579
4212.438278 105.086 -115.4136
4242.963342 105.698 -116.4754
4273.709604 106.273 -117.8082
4304.678665 106.811 -119.3825
4335.872141 107.310 -121.1715
4367.291658 107.767 -123.1490
4398.938854 108.181 -125.2878
4430.815378 108.552 -127.5594
4462.922893 108.877 -129.9344
4495.263072 109.158 -132.3831
4527.837601 109.395 -134.8771
4560.648179 109.589 -137.3900
4593.696515 109.742 -139.8979
4626.984334 109.855 -142.3794
4660.513370 109.931 -144.8159
4694.285371 109.971 -147.1913
4728.302098 109.979 -149.4920
4762.565324 109.958 -151.7071
4797.076835 109.910 -153.8286
4831.838432 109.839 -155.8510
4866.851925 109.746 -157.7707
4902.119140 109.635 -159.5853
4937.641916 109.507 -161.2928
4973.422105 109.365 -162.8904
5009.461572 109.208 -164.3735
5045.762195 109.039 -165.7358
5082.325868 108.859 -166.9689
5119.154496 108.669 -168.0638
5156.250000 108.471 -169.0115
5193.614313 108.268 -169.8051
5231.249383 108.061 -170.4400
5269.157173 107.854 -170.9139
5307.339658 107.648 -171.2263
5345.798829 107.445 -171.3780
5384.536691 107.249 -171.3705
5423.555263 107.061 -171.2065
5462.856580 106.883 -170.8899
5502.442691 106.719 -170.4282
5542.315659 106.572 -169.8331
5582.477563 106.444 -169.1220
5622.930497 106.339 -168.3174
5663.676569 106.258 -167.4456
5704.717904 106.204 -166.5351
5746.056642 106.177 -165.6136
5787.694937 106.176 -164.7063
5829.634960 106.199 -163.8338
5871.878898 106.246 -163.0114
5914.428953 106.312 -162.2492
5957.287343 106.394 -161.5515
6000.456303 106.490 -160.9181
6043.938083 106.595 -160.3440
6087.734950 106.707 -159.8214
6131.849187 106.822 -159.3404
6176.283094 106.938 -158.8900
6221.038987 107.053 -158.4589
6266.119200 107.165 -158.0366
6311.526083 107.275 -157.6137
6357.262002 107.381 -157.1829
6403.329344 107.483 -156.7398
6449.730508 107.584 -156.2836
6496.467914 107.683 -155.8171
6543.543998 107.783 -155.3469
6590.961215 107.885 -154.8822
6638.722037 107.992 -154.4341
6686.828954 108.103 -154.0147
6735.284473 108.222 -153.6362
6784.091120 108.348 -153.3108
6833.251441 108.483 -153.0497
6882.767998 108.628 -152.8625
6932.643372 108.783 -152.7575
6982.880164 108.947 -152.7406
7033.480992 109.119 -152.8165
7084.448495 109.300 -152.9885
7135.785329 109.487 -153.2592
7187.494171 109.679 -153.6308
7239.577717 109.873 -154.1043
7292.038681 110.067 -154.6795
7344.879799 110.259 -155.3542
7398.103826 110.445 -156.1239
7451.713536 110.622 -156.9820
7505.711724 110.789 -157.9210
7560.101205 110.944 -158.9326
7614.884815 111.085 -160.0098
7670.065409 111.210 -161.1472
7725.645865 111.320 -162.3423
7781.629080 111.414 -163.5960
7838.017972 111.490 -164.9118
7894.815481 111.547 -166.2945
7952.024569 111.583 -167.7486
8009.648217 111.595 -169.2753
8067.689429 111.581 -170.8707
8126.151233 111.537 -172.5234
8185.036674 111.459 -174.2133
8244.348824 111.344 -175.9107
8304.090774 111.190 -177.5765
8364.265639 110.995 -179.1638
8424.876556 110.759 179.3799
8485.926684 110.486 178.1083
8547.419207 110.179 177.0726
8609.357330 109.846 176.3160
8671.744282 109.494 175.8698
8734.583316 109.135 175.7498
8797.877707 108.781 175.9546
8861.630756 108.442 176.4660
8925.845785 108.130 177.2507
8990.526143 107.856 178.2627
9055.675202 107.628 179.4476
9121.296357 107.451 -179.2534
9187.393031 107.329 -177.9004
9253.968668 107.260 -176.5519
9321.026740 107.242 -175.2629
9388.570742 107.270 -174.0838
9456.604196 107.338 -173.0593
9525.130648 107.439 -172.2277
9594.153671 107.565 -171.6206
9663.676863 107.707 -171.2623
9733.703850 107.861 -171.1699
9804.238280 108.019 -171.3531
9875.283832 108.176 -171.8156
9946.844210 108.329 -172.5557
10018.923143 108.475 -173.5678
10091.524390 108.611 -174.8444
10164.651736 108.735 -176.3771
10238.308993 108.846 -178.1576
10312.500000 108.943 179.8224
10387.228626 109.021 177.5721
10462.498767 109.077 175.1028
10538.314345 109.107 172.4307
10614.679315 109.105 169.5786
10691.597657 109.064 166.5773
10769.073381 108.979 163.4654
10847.110526 108.846 160.2880
10925.713161 108.662 157.0941
11004.885382 108.425 153.9325
11084.631318 108.135 150.8493
11164.955126 107.794 147.8839
11245.860993 107.405 145.0674
11327.353138 106.974 142.4200
11409.435808 106.505 139.9503
11492.113283 106.004 137.6550
11575.389873 105.478 135.5185
11659.269920 104.936 133.5133
11743.757796 104.384 131.6007
11828.857906 103.831 129.7324
11914.574686 103.284 127.8514
12000.912606 102.751 125.8953
12087.876166 102.238 123.7993
12175.469900 101.750 121.5001
12263.698373 101.286 118.9393
12352.566187 100.845 116.0670
12442.077974 100.423 112.8441
12532.238400 100.010 109.2427
12623.052165 99.597 105.2460
12714.524005 99.173 100.8452
12806.658687 98.728 96.0363
12899.461015 98.250 90.8127
12992.935827 97.734 85.1548
13087.087996 97.174 79.0111
13181.922430 96.569 72.2660
13277.444074 95.921 64.6756
13373.657907 95.234 55.7285
13470.568945 94.515 44.3046
13568.182241 93.774 27.7920
13666.502883 93.021 0.5590
13765.535996 92.266 -39.7315
13865.286744 91.519 -74.1553
13965.760328 90.785 -94.5046
14066.961984 90.070 -106.9990
14168.896989 89.375 -115.6119
14271.570658 88.698 -122.0444
14374.988342 88.038 -127.0593
14479.155433 87.395 -131.0365
14584.077362 86.771 -134.1910
14689.759598 86.168 -136.6646
14796.207652 85.589 -138.5649
14903.427072 85.040 -139.9817
15011.423448 84.524 -140.9920
15120.202410 84.044 -141.6641
15229.769630 83.603 -142.0612
15340.130819 83.202 -142.2466
15451.291730 82.842 -142.2876
15563.258160 82.521 -142.2532
15676.035944 82.239 -142.2068
15789.630962 81.987 -142.1960
15904.049137 81.761 -142.2416
16019.296433 81.553 -142.3300
16135.378859 81.361 -142.4090
16252.302465 81.185 -142.3861
16370.073348 81.036 -142.1271
16488.697648 80.932 -141.4573
16608.181548 80.901 -140.1683
16728.531278 80.979 -138.0420
16849.753112 81.196 -134.9095
16971.853368 81.575 -130.7638
17094.838414 82.116 -125.8975
17218.714660 82.800 -120.9502
17343.488565 83.592 -116.7352
17469.166632 84.456 -113.9228
17595.755415 85.356 -112.8435
17723.261512 86.265 -113.5200
17851.691571 87.163 -115.8070
17981.052287 88.036 -119.5123
18111.350404 88.875 -124.4601
18242.592715 89.674 -130.5143
18374.786062 90.429 -137.5773
18507.937336 91.135 -145.5786
18642.053479 91.789 -154.4536
18777.141484 92.387 -164.1146
18913.208391 92.924 -174.4132
19050.261296 93.397 174.8947
19188.307342 93.803 164.1657
19327.353727 94.139 153.8484
19467.407699 94.408 144.4279
19608.476560 94.611 136.3547
19750.567664 94.755 129.9967
19893.688419 94.846 125.6196
20037.846286 94.890 123.3910
